# Version 2.1 - nm, norm@500 to 1, cut digits, bergeron_50000_80.dat_50000
# Wavelength(nm)  Flambda(ergs/cm^s/s/nm)
300.00 6.192
300.10 6.185
300.20 6.177
300.30 6.17
300.40 6.162
300.50 6.155
300.60 6.148
300.70 6.14
300.80 6.133
300.90 6.125
301.00 6.118
301.10 6.111
301.20 6.103
301.30 6.096
301.40 6.089
301.50 6.081
301.60 6.074
301.70 6.067
301.80 6.059
301.90 6.052
302.00 6.045
302.10 6.038
302.20 6.03
302.30 6.023
302.40 6.016
302.50 6.009
302.60 6.002
302.70 5.994
302.80 5.987
302.90 5.98
303.00 5.973
303.10 5.966
303.20 5.959
303.30 5.952
303.40 5.944
303.50 5.937
303.60 5.93
303.70 5.923
303.80 5.916
303.90 5.909
304.00 5.902
304.10 5.895
304.20 5.888
304.30 5.881
304.40 5.874
304.50 5.867
304.60 5.86
304.70 5.853
304.80 5.846
304.90 5.839
305.00 5.832
305.10 5.825
305.20 5.818
305.30 5.811
305.40 5.804
305.50 5.798
305.60 5.791
305.70 5.784
305.80 5.777
305.90 5.77
306.00 5.763
306.10 5.756
306.20 5.75
306.30 5.743
306.40 5.736
306.50 5.729
306.60 5.722
306.70 5.716
306.80 5.709
306.90 5.702
307.00 5.696
307.10 5.689
307.20 5.682
307.30 5.675
307.40 5.669
307.50 5.662
307.60 5.655
307.70 5.649
307.80 5.642
307.90 5.635
308.00 5.629
308.10 5.622
308.20 5.615
308.30 5.609
308.40 5.602
308.50 5.596
308.60 5.589
308.70 5.582
308.80 5.576
308.90 5.569
309.00 5.563
309.10 5.556
309.20 5.55
309.30 5.543
309.40 5.537
309.50 5.53
309.60 5.524
309.70 5.517
309.80 5.511
309.90 5.504
310.00 5.498
310.10 5.492
310.20 5.485
310.30 5.479
310.40 5.472
310.50 5.466
310.60 5.46
310.70 5.453
310.80 5.447
310.90 5.44
311.00 5.434
311.10 5.428
311.20 5.421
311.30 5.415
311.40 5.409
311.50 5.402
311.60 5.396
311.70 5.39
311.80 5.384
311.90 5.377
312.00 5.371
312.10 5.365
312.20 5.359
312.30 5.352
312.40 5.346
312.50 5.34
312.60 5.334
312.70 5.327
312.80 5.321
312.90 5.315
313.00 5.309
313.10 5.303
313.20 5.297
313.30 5.291
313.40 5.284
313.50 5.278
313.60 5.272
313.70 5.266
313.80 5.26
313.90 5.254
314.00 5.248
314.10 5.242
314.20 5.236
314.30 5.23
314.40 5.224
314.50 5.218
314.60 5.212
314.70 5.205
314.80 5.199
314.90 5.193
315.00 5.187
315.10 5.182
315.20 5.176
315.30 5.17
315.40 5.164
315.50 5.158
315.60 5.152
315.70 5.146
315.80 5.14
315.90 5.134
316.00 5.128
316.10 5.122
316.20 5.116
316.30 5.11
316.40 5.105
316.50 5.099
316.60 5.093
316.70 5.087
316.80 5.081
316.90 5.075
317.00 5.069
317.10 5.064
317.20 5.058
317.30 5.052
317.40 5.046
317.50 5.041
317.60 5.035
317.70 5.029
317.80 5.023
317.90 5.017
318.00 5.012
318.10 5.006
318.20 5
318.30 4.995
318.40 4.989
318.50 4.983
318.60 4.977
318.70 4.972
318.80 4.966
318.90 4.96
319.00 4.955
319.10 4.949
319.20 4.944
319.30 4.938
319.40 4.932
319.50 4.927
319.60 4.921
319.70 4.915
319.80 4.91
319.90 4.904
320.00 4.899
320.10 4.893
320.20 4.888
320.30 4.882
320.40 4.876
320.50 4.871
320.60 4.865
320.70 4.86
320.80 4.854
320.90 4.849
321.00 4.843
321.10 4.838
321.20 4.832
321.30 4.827
321.40 4.821
321.50 4.816
321.60 4.811
321.70 4.805
321.80 4.8
321.90 4.794
322.00 4.789
322.10 4.783
322.20 4.778
322.30 4.773
322.40 4.767
322.50 4.762
322.60 4.756
322.70 4.751
322.80 4.746
322.90 4.74
323.00 4.735
323.10 4.73
323.20 4.724
323.30 4.719
323.40 4.714
323.50 4.708
323.60 4.703
323.70 4.698
323.80 4.693
323.90 4.687
324.00 4.682
324.10 4.677
324.20 4.672
324.30 4.666
324.40 4.661
324.50 4.656
324.60 4.651
324.70 4.645
324.80 4.64
324.90 4.635
325.00 4.63
325.10 4.625
325.20 4.619
325.30 4.614
325.40 4.609
325.50 4.604
325.60 4.599
325.70 4.594
325.80 4.589
325.90 4.583
326.00 4.578
326.10 4.573
326.20 4.568
326.30 4.563
326.40 4.558
326.50 4.553
326.60 4.548
326.70 4.543
326.80 4.538
326.90 4.532
327.00 4.527
327.10 4.522
327.20 4.517
327.30 4.512
327.40 4.507
327.50 4.502
327.60 4.497
327.70 4.492
327.80 4.487
327.90 4.482
328.00 4.477
328.10 4.472
328.20 4.467
328.30 4.462
328.40 4.457
328.50 4.453
328.60 4.448
328.70 4.443
328.80 4.438
328.90 4.433
329.00 4.428
329.10 4.423
329.20 4.418
329.30 4.413
329.40 4.408
329.50 4.403
329.60 4.399
329.70 4.394
329.80 4.389
329.90 4.384
330.00 4.379
330.10 4.374
330.20 4.37
330.30 4.365
330.40 4.36
330.50 4.355
330.60 4.35
330.70 4.346
330.80 4.341
330.90 4.336
331.00 4.331
331.10 4.326
331.20 4.322
331.30 4.317
331.40 4.312
331.50 4.307
331.60 4.303
331.70 4.298
331.80 4.293
331.90 4.288
332.00 4.284
332.10 4.279
332.20 4.274
332.30 4.27
332.40 4.265
332.50 4.26
332.60 4.256
332.70 4.251
332.80 4.246
332.90 4.242
333.00 4.237
333.10 4.232
333.20 4.228
333.30 4.223
333.40 4.218
333.50 4.214
333.60 4.209
333.70 4.205
333.80 4.2
333.90 4.195
334.00 4.191
334.10 4.186
334.20 4.182
334.30 4.177
334.40 4.173
334.50 4.168
334.60 4.163
334.70 4.159
334.80 4.154
334.90 4.15
335.00 4.145
335.10 4.141
335.20 4.136
335.30 4.132
335.40 4.127
335.50 4.123
335.60 4.118
335.70 4.114
335.80 4.109
335.90 4.105
336.00 4.1
336.10 4.096
336.20 4.092
336.30 4.087
336.40 4.083
336.50 4.078
336.60 4.074
336.70 4.069
336.80 4.065
336.90 4.061
337.00 4.056
337.10 4.052
337.20 4.047
337.30 4.043
337.40 4.039
337.50 4.034
337.60 4.03
337.70 4.026
337.80 4.021
337.90 4.017
338.00 4.012
338.10 4.008
338.20 4.004
338.30 4
338.40 3.995
338.50 3.991
338.60 3.987
338.70 3.982
338.80 3.978
338.90 3.974
339.00 3.969
339.10 3.965
339.20 3.961
339.30 3.957
339.40 3.952
339.50 3.948
339.60 3.944
339.70 3.94
339.80 3.935
339.90 3.931
340.00 3.927
340.10 3.923
340.20 3.919
340.30 3.914
340.40 3.91
340.50 3.906
340.60 3.902
340.70 3.898
340.80 3.893
340.90 3.889
341.00 3.885
341.10 3.881
341.20 3.877
341.30 3.873
341.40 3.868
341.50 3.864
341.60 3.86
341.70 3.856
341.80 3.852
341.90 3.848
342.00 3.844
342.10 3.84
342.20 3.835
342.30 3.831
342.40 3.827
342.50 3.823
342.60 3.819
342.70 3.815
342.80 3.811
342.90 3.807
343.00 3.803
343.10 3.799
343.20 3.795
343.30 3.791
343.40 3.787
343.50 3.783
343.60 3.779
343.70 3.775
343.80 3.771
343.90 3.767
344.00 3.763
344.10 3.759
344.20 3.755
344.30 3.751
344.40 3.747
344.50 3.743
344.60 3.739
344.70 3.735
344.80 3.731
344.90 3.727
345.00 3.723
345.10 3.719
345.20 3.715
345.30 3.711
345.40 3.707
345.50 3.703
345.60 3.699
345.70 3.695
345.80 3.691
345.90 3.687
346.00 3.684
346.10 3.68
346.20 3.676
346.30 3.672
346.40 3.668
346.50 3.664
346.60 3.66
346.70 3.656
346.80 3.653
346.90 3.649
347.00 3.645
347.10 3.641
347.20 3.637
347.30 3.633
347.40 3.63
347.50 3.626
347.60 3.622
347.70 3.618
347.80 3.614
347.90 3.61
348.00 3.607
348.10 3.603
348.20 3.599
348.30 3.595
348.40 3.592
348.50 3.588
348.60 3.584
348.70 3.58
348.80 3.576
348.90 3.573
349.00 3.569
349.10 3.565
349.20 3.562
349.30 3.558
349.40 3.554
349.50 3.55
349.60 3.547
349.70 3.543
349.80 3.539
349.90 3.535
350.00 3.532
350.10 3.528
350.20 3.524
350.30 3.521
350.40 3.517
350.50 3.513
350.60 3.51
350.70 3.506
350.80 3.502
350.90 3.499
351.00 3.495
351.10 3.491
351.20 3.488
351.30 3.484
351.40 3.481
351.50 3.477
351.60 3.473
351.70 3.47
351.80 3.466
351.90 3.462
352.00 3.459
352.10 3.455
352.20 3.452
352.30 3.448
352.40 3.444
352.50 3.441
352.60 3.437
352.70 3.434
352.80 3.43
352.90 3.427
353.00 3.423
353.10 3.42
353.20 3.416
353.30 3.412
353.40 3.409
353.50 3.405
353.60 3.402
353.70 3.398
353.80 3.395
353.90 3.391
354.00 3.388
354.10 3.384
354.20 3.381
354.30 3.377
354.40 3.374
354.50 3.37
354.60 3.367
354.70 3.363
354.80 3.36
354.90 3.356
355.00 3.353
355.10 3.349
355.20 3.346
355.30 3.343
355.40 3.339
355.50 3.336
355.60 3.332
355.70 3.329
355.80 3.325
355.90 3.322
356.00 3.318
356.10 3.315
356.20 3.312
356.30 3.308
356.40 3.305
356.50 3.301
356.60 3.298
356.70 3.295
356.80 3.291
356.90 3.288
357.00 3.285
357.10 3.281
357.20 3.278
357.30 3.274
357.40 3.271
357.50 3.268
357.60 3.264
357.70 3.261
357.80 3.258
357.90 3.254
358.00 3.251
358.10 3.248
358.20 3.244
358.30 3.241
358.40 3.238
358.50 3.234
358.60 3.231
358.70 3.228
358.80 3.225
358.90 3.221
359.00 3.218
359.10 3.215
359.20 3.211
359.30 3.208
359.40 3.205
359.50 3.202
359.60 3.198
359.70 3.195
359.80 3.192
359.90 3.188
360.00 3.185
360.10 3.182
360.20 3.179
360.30 3.175
360.40 3.172
360.50 3.169
360.60 3.166
360.70 3.163
360.80 3.159
360.90 3.156
361.00 3.153
361.10 3.15
361.20 3.147
361.30 3.143
361.40 3.14
361.50 3.137
361.60 3.134
361.70 3.131
361.80 3.127
361.90 3.124
362.00 3.121
362.10 3.118
362.20 3.115
362.30 3.112
362.40 3.108
362.50 3.105
362.60 3.102
362.70 3.099
362.80 3.096
362.90 3.093
363.00 3.09
363.10 3.087
363.20 3.083
363.30 3.08
363.40 3.077
363.50 3.074
363.60 3.071
363.70 3.068
363.80 3.065
363.90 3.062
364.00 3.059
364.10 3.056
364.20 3.052
364.30 3.049
364.40 3.046
364.50 3.043
364.60 3.04
364.70 3.037
364.80 3.034
364.90 3.031
365.00 3.028
365.10 3.025
365.20 3.022
365.30 3.019
365.40 3.016
365.50 3.013
365.60 3.01
365.70 3.007
365.80 3.004
365.90 3.001
366.00 2.998
366.10 2.995
366.20 2.991
366.30 2.988
366.40 2.985
366.50 2.982
366.60 2.979
366.70 2.976
366.80 2.973
366.90 2.97
367.00 2.967
367.10 2.964
367.20 2.961
367.30 2.958
367.40 2.955
367.50 2.951
367.60 2.948
367.70 2.945
367.80 2.942
367.90 2.939
368.00 2.936
368.10 2.933
368.20 2.93
368.30 2.927
368.40 2.924
368.50 2.921
368.60 2.918
368.70 2.915
368.80 2.912
368.90 2.909
369.00 2.906
369.10 2.903
369.20 2.9
369.30 2.897
369.40 2.894
369.50 2.891
369.60 2.888
369.70 2.885
369.80 2.882
369.90 2.879
370.00 2.876
370.10 2.873
370.20 2.87
370.30 2.867
370.40 2.864
370.50 2.861
370.60 2.858
370.70 2.855
370.80 2.852
370.90 2.849
371.00 2.846
371.10 2.843
371.20 2.84
371.30 2.838
371.40 2.835
371.50 2.832
371.60 2.829
371.70 2.826
371.80 2.823
371.90 2.82
372.00 2.817
372.10 2.814
372.20 2.812
372.30 2.809
372.40 2.806
372.50 2.803
372.60 2.8
372.70 2.797
372.80 2.795
372.90 2.792
373.00 2.789
373.10 2.786
373.20 2.783
373.30 2.781
373.40 2.778
373.50 2.775
373.60 2.772
373.70 2.769
373.80 2.767
373.90 2.764
374.00 2.761
374.10 2.758
374.20 2.756
374.30 2.753
374.40 2.75
374.50 2.747
374.60 2.745
374.70 2.742
374.80 2.739
374.90 2.736
375.00 2.734
375.10 2.731
375.20 2.728
375.30 2.726
375.40 2.723
375.50 2.72
375.60 2.717
375.70 2.715
375.80 2.712
375.90 2.709
376.00 2.707
376.10 2.704
376.20 2.701
376.30 2.699
376.40 2.696
376.50 2.693
376.60 2.691
376.70 2.688
376.80 2.686
376.90 2.683
377.00 2.68
377.10 2.678
377.20 2.675
377.30 2.673
377.40 2.67
377.50 2.668
377.60 2.665
377.70 2.663
377.80 2.66
377.90 2.658
378.00 2.655
378.10 2.653
378.20 2.65
378.30 2.648
378.40 2.645
378.50 2.643
378.60 2.64
378.70 2.638
378.80 2.635
378.90 2.633
379.00 2.631
379.10 2.628
379.20 2.626
379.30 2.623
379.40 2.621
379.50 2.619
379.60 2.616
379.70 2.614
379.80 2.611
379.90 2.609
380.00 2.607
380.10 2.604
380.20 2.602
380.30 2.6
380.40 2.598
380.50 2.596
380.60 2.593
380.70 2.591
380.80 2.589
380.90 2.587
381.00 2.585
381.10 2.582
381.20 2.58
381.30 2.578
381.40 2.576
381.50 2.573
381.60 2.571
381.70 2.568
381.80 2.566
381.90 2.564
382.00 2.561
382.10 2.559
382.20 2.556
382.30 2.553
382.40 2.551
382.50 2.548
382.60 2.545
382.70 2.543
382.80 2.54
382.90 2.538
383.00 2.535
383.10 2.532
383.20 2.53
383.30 2.527
383.40 2.525
383.50 2.523
383.60 2.521
383.70 2.519
383.80 2.517
383.90 2.515
384.00 2.514
384.10 2.513
384.20 2.511
384.30 2.51
384.40 2.508
384.50 2.507
384.60 2.505
384.70 2.503
384.80 2.502
384.90 2.5
385.00 2.498
385.10 2.497
385.20 2.495
385.30 2.493
385.40 2.491
385.50 2.489
385.60 2.487
385.70 2.484
385.80 2.482
385.90 2.48
386.00 2.477
386.10 2.475
386.20 2.472
386.30 2.47
386.40 2.467
386.50 2.464
386.60 2.461
386.70 2.458
386.80 2.455
386.90 2.452
387.00 2.449
387.10 2.445
387.20 2.442
387.30 2.438
387.40 2.435
387.50 2.431
387.60 2.428
387.70 2.424
387.80 2.42
387.90 2.416
388.00 2.412
388.10 2.409
388.20 2.405
388.30 2.401
388.40 2.397
388.50 2.394
388.60 2.391
388.70 2.388
388.80 2.385
388.90 2.383
389.00 2.382
389.10 2.381
389.20 2.38
389.30 2.38
389.40 2.379
389.50 2.379
389.60 2.379
389.70 2.38
389.80 2.38
389.90 2.38
390.00 2.38
390.10 2.38
390.20 2.38
390.30 2.38
390.40 2.38
390.50 2.38
390.60 2.38
390.70 2.38
390.80 2.379
390.90 2.379
391.00 2.379
391.10 2.378
391.20 2.377
391.30 2.376
391.40 2.375
391.50 2.374
391.60 2.373
391.70 2.372
391.80 2.371
391.90 2.369
392.00 2.367
392.10 2.366
392.20 2.364
392.30 2.362
392.40 2.36
392.50 2.358
392.60 2.356
392.70 2.353
392.80 2.351
392.90 2.348
393.00 2.345
393.10 2.342
393.20 2.339
393.30 2.336
393.40 2.333
393.50 2.33
393.60 2.326
393.70 2.322
393.80 2.319
393.90 2.315
394.00 2.311
394.10 2.306
394.20 2.302
394.30 2.297
394.40 2.293
394.50 2.288
394.60 2.283
394.70 2.278
394.80 2.272
394.90 2.267
395.00 2.261
395.10 2.256
395.20 2.25
395.30 2.244
395.40 2.238
395.50 2.231
395.60 2.225
395.70 2.218
395.80 2.212
395.90 2.205
396.00 2.198
396.10 2.191
396.20 2.184
396.30 2.177
396.40 2.17
396.50 2.163
396.60 2.156
396.70 2.149
396.80 2.143
396.90 2.137
397.00 2.131
397.10 2.133
397.20 2.135
397.30 2.138
397.40 2.141
397.50 2.145
397.60 2.148
397.70 2.152
397.80 2.156
397.90 2.159
398.00 2.163
398.10 2.166
398.20 2.169
398.30 2.172
398.40 2.175
398.50 2.178
398.60 2.181
398.70 2.184
398.80 2.187
398.90 2.189
399.00 2.191
399.10 2.194
399.20 2.196
399.30 2.197
399.40 2.199
399.50 2.201
399.60 2.202
399.70 2.204
399.80 2.205
399.90 2.206
400.00 2.207
400.10 2.208
400.20 2.208
400.30 2.209
400.40 2.209
400.50 2.21
400.60 2.21
400.70 2.21
400.80 2.21
400.90 2.21
401.00 2.21
401.10 2.21
401.20 2.21
401.30 2.209
401.40 2.209
401.50 2.208
401.60 2.207
401.70 2.207
401.80 2.206
401.90 2.205
402.00 2.204
402.10 2.203
402.20 2.202
402.30 2.2
402.40 2.199
402.50 2.198
402.60 2.196
402.70 2.195
402.80 2.193
402.90 2.191
403.00 2.19
403.10 2.188
403.20 2.186
403.30 2.184
403.40 2.182
403.50 2.18
403.60 2.178
403.70 2.175
403.80 2.173
403.90 2.171
404.00 2.168
404.10 2.166
404.20 2.163
404.30 2.16
404.40 2.158
404.50 2.155
404.60 2.152
404.70 2.149
404.80 2.146
404.90 2.143
405.00 2.139
405.10 2.136
405.20 2.133
405.30 2.129
405.40 2.126
405.50 2.122
405.60 2.118
405.70 2.114
405.80 2.11
405.90 2.106
406.00 2.101
406.10 2.097
406.20 2.092
406.30 2.088
406.40 2.083
406.50 2.078
406.60 2.073
406.70 2.067
406.80 2.062
406.90 2.056
407.00 2.051
407.10 2.045
407.20 2.039
407.30 2.032
407.40 2.026
407.50 2.019
407.60 2.012
407.70 2.005
407.80 1.998
407.90 1.99
408.00 1.983
408.10 1.975
408.20 1.966
408.30 1.958
408.40 1.949
408.50 1.941
408.60 1.931
408.70 1.922
408.80 1.913
408.90 1.903
409.00 1.893
409.10 1.883
409.20 1.872
409.30 1.862
409.40 1.851
409.50 1.841
409.60 1.83
409.70 1.82
409.80 1.811
409.90 1.802
410.00 1.798
410.10 1.797
410.20 1.799
410.30 1.794
410.40 1.793
410.50 1.797
410.60 1.803
410.70 1.809
410.80 1.817
410.90 1.824
411.00 1.831
411.10 1.839
411.20 1.846
411.30 1.853
411.40 1.86
411.50 1.866
411.60 1.872
411.70 1.878
411.80 1.884
411.90 1.89
412.00 1.895
412.10 1.9
412.20 1.905
412.30 1.91
412.40 1.914
412.50 1.918
412.60 1.922
412.70 1.925
412.80 1.929
412.90 1.932
413.00 1.935
413.10 1.938
413.20 1.941
413.30 1.943
413.40 1.945
413.50 1.948
413.60 1.95
413.70 1.951
413.80 1.953
413.90 1.955
414.00 1.956
414.10 1.957
414.20 1.958
414.30 1.96
414.40 1.96
414.50 1.961
414.60 1.962
414.70 1.963
414.80 1.963
414.90 1.963
415.00 1.964
415.10 1.964
415.20 1.964
415.30 1.964
415.40 1.964
415.50 1.964
415.60 1.964
415.70 1.964
415.80 1.963
415.90 1.963
416.00 1.963
416.10 1.962
416.20 1.962
416.30 1.961
416.40 1.961
416.50 1.96
416.60 1.959
416.70 1.958
416.80 1.958
416.90 1.957
417.00 1.956
417.10 1.955
417.20 1.954
417.30 1.953
417.40 1.952
417.50 1.951
417.60 1.95
417.70 1.949
417.80 1.948
417.90 1.947
418.00 1.946
418.10 1.945
418.20 1.943
418.30 1.942
418.40 1.941
418.50 1.94
418.60 1.938
418.70 1.937
418.80 1.936
418.90 1.935
419.00 1.933
419.10 1.932
419.20 1.93
419.30 1.929
419.40 1.928
419.50 1.926
419.60 1.925
419.70 1.923
419.80 1.922
419.90 1.92
420.00 1.919
420.10 1.917
420.20 1.916
420.30 1.914
420.40 1.913
420.50 1.911
420.60 1.91
420.70 1.908
420.80 1.907
420.90 1.905
421.00 1.904
421.10 1.902
421.20 1.9
421.30 1.899
421.40 1.897
421.50 1.895
421.60 1.894
421.70 1.892
421.80 1.891
421.90 1.889
422.00 1.887
422.10 1.886
422.20 1.884
422.30 1.882
422.40 1.881
422.50 1.879
422.60 1.877
422.70 1.875
422.80 1.874
422.90 1.872
423.00 1.87
423.10 1.868
423.20 1.867
423.30 1.865
423.40 1.863
423.50 1.861
423.60 1.859
423.70 1.858
423.80 1.856
423.90 1.854
424.00 1.852
424.10 1.85
424.20 1.848
424.30 1.847
424.40 1.845
424.50 1.843
424.60 1.841
424.70 1.839
424.80 1.837
424.90 1.835
425.00 1.833
425.10 1.831
425.20 1.829
425.30 1.827
425.40 1.825
425.50 1.823
425.60 1.821
425.70 1.819
425.80 1.817
425.90 1.815
426.00 1.813
426.10 1.811
426.20 1.808
426.30 1.806
426.40 1.804
426.50 1.802
426.60 1.8
426.70 1.797
426.80 1.795
426.90 1.793
427.00 1.79
427.10 1.788
427.20 1.786
427.30 1.783
427.40 1.781
427.50 1.778
427.60 1.775
427.70 1.773
427.80 1.77
427.90 1.768
428.00 1.765
428.10 1.762
428.20 1.759
428.30 1.756
428.40 1.753
428.50 1.75
428.60 1.747
428.70 1.744
428.80 1.741
428.90 1.738
429.00 1.734
429.10 1.731
429.20 1.727
429.30 1.724
429.40 1.72
429.50 1.716
429.60 1.712
429.70 1.708
429.80 1.704
429.90 1.7
430.00 1.696
430.10 1.691
430.20 1.687
430.30 1.682
430.40 1.677
430.50 1.672
430.60 1.667
430.70 1.662
430.80 1.657
430.90 1.651
431.00 1.645
431.10 1.639
431.20 1.633
431.30 1.627
431.40 1.62
431.50 1.614
431.60 1.607
431.70 1.599
431.80 1.592
431.90 1.584
432.00 1.576
432.10 1.568
432.20 1.56
432.30 1.551
432.40 1.542
432.50 1.533
432.60 1.523
432.70 1.514
432.80 1.504
432.90 1.493
433.00 1.483
433.10 1.472
433.20 1.462
433.30 1.451
433.40 1.44
433.50 1.429
433.60 1.418
433.70 1.408
433.80 1.398
433.90 1.388
434.00 1.378
434.10 1.377
434.20 1.386
434.30 1.393
434.40 1.401
434.50 1.409
434.60 1.417
434.70 1.426
434.80 1.434
434.90 1.443
435.00 1.451
435.10 1.459
435.20 1.467
435.30 1.475
435.40 1.482
435.50 1.489
435.60 1.496
435.70 1.502
435.80 1.508
435.90 1.514
436.00 1.52
436.10 1.525
436.20 1.531
436.30 1.535
436.40 1.54
436.50 1.544
436.60 1.548
436.70 1.552
436.80 1.556
436.90 1.559
437.00 1.563
437.10 1.566
437.20 1.568
437.30 1.571
437.40 1.573
437.50 1.576
437.60 1.578
437.70 1.58
437.80 1.582
437.90 1.583
438.00 1.585
438.10 1.586
438.20 1.588
438.30 1.589
438.40 1.59
438.50 1.591
438.60 1.592
438.70 1.592
438.80 1.593
438.90 1.594
439.00 1.594
439.10 1.595
439.20 1.595
439.30 1.595
439.40 1.595
439.50 1.595
439.60 1.595
439.70 1.595
439.80 1.595
439.90 1.595
440.00 1.595
440.10 1.595
440.20 1.595
440.30 1.594
440.40 1.594
440.50 1.593
440.60 1.593
440.70 1.593
440.80 1.592
440.90 1.591
441.00 1.591
441.10 1.59
441.20 1.59
441.30 1.589
441.40 1.588
441.50 1.588
441.60 1.587
441.70 1.586
441.80 1.585
441.90 1.584
442.00 1.584
442.10 1.583
442.20 1.582
442.30 1.581
442.40 1.58
442.50 1.579
442.60 1.578
442.70 1.577
442.80 1.576
442.90 1.575
443.00 1.574
443.10 1.573
443.20 1.572
443.30 1.571
443.40 1.57
443.50 1.569
443.60 1.568
443.70 1.567
443.80 1.566
443.90 1.565
444.00 1.564
444.10 1.563
444.20 1.562
444.30 1.561
444.40 1.56
444.50 1.559
444.60 1.557
444.70 1.556
444.80 1.555
444.90 1.554
445.00 1.553
445.10 1.552
445.20 1.551
445.30 1.55
445.40 1.548
445.50 1.547
445.60 1.546
445.70 1.545
445.80 1.544
445.90 1.543
446.00 1.541
446.10 1.54
446.20 1.539
446.30 1.538
446.40 1.537
446.50 1.536
446.60 1.534
446.70 1.533
446.80 1.532
446.90 1.531
447.00 1.53
447.10 1.528
447.20 1.527
447.30 1.526
447.40 1.525
447.50 1.524
447.60 1.522
447.70 1.521
447.80 1.52
447.90 1.519
448.00 1.518
448.10 1.516
448.20 1.515
448.30 1.514
448.40 1.513
448.50 1.512
448.60 1.51
448.70 1.509
448.80 1.508
448.90 1.507
449.00 1.505
449.10 1.504
449.20 1.503
449.30 1.502
449.40 1.501
449.50 1.499
449.60 1.498
449.70 1.497
449.80 1.496
449.90 1.495
450.00 1.493
450.10 1.492
450.20 1.491
450.30 1.49
450.40 1.488
450.50 1.487
450.60 1.486
450.70 1.485
450.80 1.484
450.90 1.482
451.00 1.481
451.10 1.48
451.20 1.479
451.30 1.478
451.40 1.476
451.50 1.475
451.60 1.474
451.70 1.473
451.80 1.472
451.90 1.47
452.00 1.469
452.10 1.468
452.20 1.467
452.30 1.466
452.40 1.464
452.50 1.463
452.60 1.462
452.70 1.461
452.80 1.46
452.90 1.458
453.00 1.457
453.10 1.456
453.20 1.455
453.30 1.454
453.40 1.452
453.50 1.451
453.60 1.45
453.70 1.449
453.80 1.448
453.90 1.446
454.00 1.445
454.10 1.444
454.20 1.443
