# Wavelength(nm)  Flambda(ergs/cm^s/s/nm)
300.00 1.98141
300.10 1.981006
300.20 1.980589
300.30 1.98019
300.40 1.979921
300.50 1.979653
300.60 1.979384
300.70 1.979116
300.80 1.978847
300.90 1.978578
301.00 1.978308
301.10 1.978039
301.20 1.97777
301.30 1.977501
301.40 1.977232
301.50 1.976963
301.60 1.976692
301.70 1.976423
301.80 1.976154
301.90 1.975884
302.00 1.975614
302.10 1.975277
302.20 1.974933
302.30 1.974589
302.40 1.974245
302.50 1.9739
302.60 1.973557
302.70 1.973212
302.80 1.972868
302.90 1.972524
303.00 1.97218
303.10 1.971836
303.20 1.971492
303.30 1.971153
303.40 1.970856
303.50 1.970559
303.60 1.970262
303.70 1.969965
303.80 1.969668
303.90 1.96937
304.00 1.969073
304.10 1.968776
304.20 1.968479
304.30 1.968181
304.40 1.967884
304.50 1.967587
304.60 1.967268
304.70 1.966947
304.80 1.966625
304.90 1.966303
305.00 1.965982
305.10 1.965661
305.20 1.965339
305.30 1.965017
305.40 1.964696
305.50 1.964374
305.60 1.964053
305.70 1.963732
305.80 1.96341
305.90 1.963088
306.00 1.962766
306.10 1.962446
306.20 1.962124
306.30 1.961802
306.40 1.961458
306.50 1.961107
306.60 1.960756
306.70 1.960405
306.80 1.960055
306.90 1.959703
307.00 1.959353
307.10 1.959002
307.20 1.958651
307.30 1.958301
307.40 1.95795
307.50 1.9576
307.60 1.957249
307.70 1.956898
307.80 1.956549
307.90 1.956198
308.00 1.955848
308.10 1.955497
308.20 1.955147
308.30 1.954797
308.40 1.954447
308.50 1.954096
308.60 1.953747
308.70 1.953396
308.80 1.953053
308.90 1.952724
309.00 1.952431
309.10 1.952137
309.20 1.951844
309.30 1.95155
309.40 1.95124
309.50 1.950831
309.60 1.950422
309.70 1.950012
309.80 1.949604
309.90 1.949195
310.00 1.948787
310.10 1.948378
310.20 1.947969
310.30 1.947561
310.40 1.947206
310.50 1.946912
310.60 1.946617
310.70 1.946321
310.80 1.946026
310.90 1.94573
311.00 1.945412
311.10 1.945095
311.20 1.944777
311.30 1.944433
311.40 1.944017
311.50 1.943602
311.60 1.943186
311.70 1.942771
311.80 1.942356
311.90 1.94194
312.00 1.941525
312.10 1.94111
312.20 1.940818
312.30 1.940633
312.40 1.940352
312.50 1.939842
312.60 1.939375
312.70 1.938908
312.80 1.938441
312.90 1.938062
313.00 1.937777
313.10 1.937492
313.20 1.937206
313.30 1.936879
313.40 1.936432
313.50 1.935985
313.60 1.935539
313.70 1.935093
313.80 1.934647
313.90 1.934201
314.00 1.933756
314.10 1.933409
314.20 1.933062
314.30 1.932715
314.40 1.932369
314.50 1.932022
314.60 1.931676
314.70 1.93133
314.80 1.930943
314.90 1.930464
315.00 1.930005
315.10 1.92963
315.20 1.929256
315.30 1.928881
315.40 1.928507
315.50 1.928133
315.60 1.927758
315.70 1.927384
315.80 1.92701
315.90 1.926636
316.00 1.926262
316.10 1.925889
316.20 1.925514
316.30 1.92486
316.40 1.924486
316.50 1.924113
316.60 1.924021
316.70 1.923367
316.80 1.922714
316.90 1.922341
317.00 1.921969
317.10 1.921596
317.20 1.921224
317.30 1.920976
317.40 1.920683
317.50 1.92026
317.60 1.919837
317.70 1.919414
317.80 1.918991
317.90 1.918516
318.00 1.917907
318.10 1.917536
318.20 1.917164
318.30 1.916794
318.40 1.916422
318.50 1.916051
318.60 1.915464
318.70 1.915371
318.80 1.914723
318.90 1.914158
319.00 1.914125
319.10 1.913479
319.20 1.912916
319.30 1.912595
319.40 1.912273
319.50 1.911951
319.60 1.911399
319.70 1.910932
319.80 1.910464
319.90 1.909997
320.00 1.909578
320.10 1.909209
320.20 1.908993
320.30 1.908351
320.40 1.908255
320.50 1.907613
320.60 1.907364
320.70 1.906996
320.80 1.906562
320.90 1.906057
321.00 1.905553
321.10 1.905048
321.20 1.904958
321.30 1.904527
321.40 1.904097
321.50 1.903665
321.60 1.903234
321.70 1.902804
321.80 1.902365
321.90 1.901917
322.00 1.901123
322.10 1.900685
322.20 1.900247
322.30 1.899809
322.40 1.899371
322.50 1.898934
322.60 1.898497
322.70 1.89806
322.80 1.897995
322.90 1.897538
323.00 1.897082
323.10 1.896626
323.20 1.896171
323.30 1.895715
323.40 1.89526
323.50 1.894804
323.60 1.894349
323.70 1.893894
323.80 1.89344
323.90 1.892985
324.00 1.892533
324.10 1.892082
324.20 1.891632
324.30 1.891173
324.40 1.890709
324.50 1.890265
324.60 1.88982
324.70 1.889376
324.80 1.888932
324.90 1.888488
325.00 1.888044
325.10 1.8876
325.20 1.887165
325.30 1.886746
325.40 1.886327
325.50 1.885877
325.60 1.885386
325.70 1.884897
325.80 1.884408
325.90 1.88396
326.00 1.883558
326.10 1.883155
326.20 1.882752
326.30 1.882373
326.40 1.882058
326.50 1.881596
326.60 1.881134
326.70 1.880673
326.80 1.880211
326.90 1.879751
327.00 1.87929
327.10 1.878829
327.20 1.878369
327.30 1.877908
327.40 1.877448
327.50 1.876988
327.60 1.87653
327.70 1.87607
327.80 1.875611
327.90 1.875067
328.00 1.874507
328.10 1.874041
328.20 1.873575
328.30 1.873109
328.40 1.872643
328.50 1.872226
328.60 1.871821
328.70 1.871415
328.80 1.870991
328.90 1.870515
329.00 1.870039
329.10 1.869562
329.20 1.869086
329.30 1.86861
329.40 1.868135
329.50 1.867659
329.60 1.867183
329.70 1.866709
329.80 1.866234
329.90 1.86576
330.00 1.865283
330.10 1.864804
330.20 1.864324
330.30 1.863845
330.40 1.863368
330.50 1.862896
330.60 1.862422
330.70 1.861949
330.80 1.861476
330.90 1.861003
331.00 1.860531
331.10 1.860059
331.20 1.859587
331.30 1.859115
331.40 1.858644
331.50 1.858158
331.60 1.857654
331.70 1.857151
331.80 1.856673
331.90 1.856197
332.00 1.855721
332.10 1.855247
332.20 1.854771
332.30 1.854296
332.40 1.853821
332.50 1.853348
332.60 1.852873
332.70 1.852399
332.80 1.851925
332.90 1.851453
333.00 1.850979
333.10 1.850515
333.20 1.850064
333.30 1.849612
333.40 1.849161
333.50 1.84871
333.60 1.848259
333.70 1.847808
333.80 1.847359
333.90 1.846909
334.00 1.846459
334.10 1.845978
334.20 1.845461
334.30 1.844945
334.40 1.844429
334.50 1.843913
334.60 1.843398
334.70 1.842835
334.80 1.842334
334.90 1.842
335.00 1.841666
335.10 1.840953
335.20 1.840356
335.30 1.840034
335.40 1.839438
335.50 1.838903
335.60 1.838558
335.70 1.837986
335.80 1.837641
335.90 1.837239
336.00 1.836768
336.10 1.836298
336.20 1.835828
336.30 1.83534
336.40 1.834829
336.50 1.834318
336.60 1.833808
336.70 1.833298
336.80 1.832789
336.90 1.832295
337.00 1.831821
337.10 1.831347
337.20 1.830874
337.30 1.830387
337.40 1.829884
337.50 1.829379
337.60 1.828876
337.70 1.828372
337.80 1.827869
337.90 1.827364
338.00 1.826855
338.10 1.826348
338.20 1.825839
338.30 1.825332
338.40 1.824819
338.50 1.824295
338.60 1.82377
338.70 1.823246
338.80 1.822722
338.90 1.822198
339.00 1.821675
339.10 1.821151
339.20 1.820629
339.30 1.820187
339.40 1.819862
339.50 1.819454
339.60 1.818944
339.70 1.818435
339.80 1.817925
339.90 1.817416
340.00 1.816906
340.10 1.816398
340.20 1.81589
340.30 1.815382
340.40 1.814874
340.50 1.814367
340.60 1.813859
340.70 1.813352
340.80 1.81282
340.90 1.81225
341.00 1.811705
341.10 1.811186
341.20 1.810669
341.30 1.810151
341.40 1.809634
341.50 1.809117
341.60 1.808601
341.70 1.808084
341.80 1.80758
341.90 1.807089
342.00 1.806599
342.10 1.806108
342.20 1.805745
342.30 1.805207
342.40 1.804587
342.50 1.804098
342.60 1.803608
342.70 1.803118
342.80 1.802629
342.90 1.802139
343.00 1.801611
343.10 1.801035
343.20 1.800457
343.30 1.799881
343.40 1.799341
343.50 1.798849
343.60 1.798359
343.70 1.797868
343.80 1.797377
343.90 1.796888
344.00 1.796414
344.10 1.795964
344.20 1.795515
344.30 1.795065
344.40 1.794568
344.50 1.794
344.60 1.793251
344.70 1.792921
344.80 1.792117
344.90 1.791788
345.00 1.791168
345.10 1.790603
345.20 1.790105
345.30 1.789707
345.40 1.789307
345.50 1.788827
345.60 1.788252
345.70 1.787689
345.80 1.787125
345.90 1.786562
346.00 1.786
346.10 1.785438
346.20 1.784896
346.30 1.784381
346.40 1.783867
346.50 1.783353
346.60 1.78284
346.70 1.782326
346.80 1.781813
346.90 1.7813
347.00 1.780788
347.10 1.780275
347.20 1.779763
347.30 1.779247
347.40 1.778732
347.50 1.778217
347.60 1.777704
347.70 1.777189
347.80 1.776676
347.90 1.776162
348.00 1.775649
348.10 1.775136
348.20 1.774624
348.30 1.774111
348.40 1.7736
348.50 1.773088
348.60 1.772577
348.70 1.771942
348.80 1.77133
348.90 1.770808
349.00 1.770286
349.10 1.769765
349.20 1.769243
349.30 1.768723
349.40 1.768202
349.50 1.767682
349.60 1.767162
349.70 1.766642
349.80 1.766123
349.90 1.765604
350.00 1.765085
350.10 1.764566
350.20 1.764049
350.30 1.763517
350.40 1.762967
350.50 1.762417
350.60 1.761868
350.70 1.761318
350.80 1.76077
350.90 1.760221
351.00 1.759674
351.10 1.759125
351.20 1.758578
351.30 1.758031
351.40 1.757496
351.50 1.756985
351.60 1.756474
351.70 1.755963
351.80 1.755452
351.90 1.754943
352.00 1.754432
352.10 1.753923
352.20 1.753524
352.30 1.753064
352.40 1.752499
352.50 1.751933
352.60 1.751368
352.70 1.750804
352.80 1.75024
352.90 1.749677
353.00 1.749114
353.10 1.74855
353.20 1.747987
353.30 1.747425
353.40 1.746864
353.50 1.746366
353.60 1.745886
353.70 1.745405
353.80 1.744925
353.90 1.744426
354.00 1.743891
354.10 1.743358
354.20 1.742825
354.30 1.742292
354.40 1.74176
354.50 1.741227
354.60 1.740695
354.70 1.740164
354.80 1.739614
354.90 1.739039
355.00 1.738465
355.10 1.737891
355.20 1.737317
355.30 1.736753
355.40 1.736189
355.50 1.735626
355.60 1.735062
355.70 1.734611
355.80 1.734208
355.90 1.733599
356.00 1.73297
356.10 1.732427
356.20 1.731885
356.30 1.731343
356.40 1.730801
356.50 1.730259
356.60 1.729718
356.70 1.729177
356.80 1.728636
356.90 1.728096
357.00 1.727557
357.10 1.727016
357.20 1.726477
357.30 1.725939
357.40 1.725387
357.50 1.724816
357.60 1.724244
357.70 1.723673
357.80 1.723109
357.90 1.722546
358.00 1.722
358.10 1.721459
358.20 1.720918
358.30 1.720378
358.40 1.719837
358.50 1.719297
358.60 1.718758
358.70 1.718218
358.80 1.717679
358.90 1.717141
359.00 1.716663
359.10 1.716294
359.20 1.715898
359.30 1.715317
359.40 1.714737
359.50 1.714106
359.60 1.713465
359.70 1.712822
359.80 1.712364
359.90 1.711906
360.00 1.711417
360.10 1.71087
360.20 1.710325
360.30 1.709779
360.40 1.709234
360.50 1.708689
360.60 1.707902
360.70 1.707387
360.80 1.706873
360.90 1.706359
361.00 1.705968
361.10 1.705417
361.20 1.704665
361.30 1.704152
361.40 1.703619
361.50 1.703128
361.60 1.702694
361.70 1.701968
361.80 1.701346
361.90 1.700909
362.00 1.700473
362.10 1.699874
362.20 1.699261
362.30 1.6987
362.40 1.698137
362.50 1.697576
362.60 1.697016
362.70 1.696393
362.80 1.696075
362.90 1.695566
363.00 1.695057
363.10 1.694513
363.20 1.69397
363.30 1.693116
363.40 1.692716
363.50 1.692104
363.60 1.6916
363.70 1.690906
363.80 1.690591
363.90 1.689965
364.00 1.68934
364.10 1.688716
364.20 1.688092
364.30 1.687602
364.40 1.687147
364.50 1.68665
364.60 1.686146
364.70 1.685644
364.80 1.685141
364.90 1.684429
365.00 1.683717
365.10 1.683217
365.20 1.682718
365.30 1.682218
365.40 1.681718
365.50 1.68122
365.60 1.680721
365.70 1.679993
365.80 1.679266
365.90 1.678761
366.00 1.67831
366.10 1.677806
366.20 1.677301
366.30 1.676799
366.40 1.676295
366.50 1.675409
366.60 1.674915
366.70 1.674318
366.80 1.673722
366.90 1.673148
367.00 1.672611
367.10 1.672076
367.20 1.671541
367.30 1.671006
367.40 1.670471
367.50 1.670008
367.60 1.669562
367.70 1.668982
367.80 1.668404
367.90 1.667825
368.00 1.667181
368.10 1.666686
368.20 1.666109
368.30 1.665531
368.40 1.664953
368.50 1.664375
368.60 1.663798
368.70 1.663221
368.80 1.662644
368.90 1.662216
369.00 1.661646
369.10 1.660974
369.20 1.66049
369.30 1.660003
369.40 1.659517
369.50 1.659031
369.60 1.658339
369.70 1.657647
369.80 1.657082
369.90 1.65652
370.00 1.655958
370.10 1.655697
370.20 1.655019
370.30 1.654331
370.40 1.653849
370.50 1.653367
370.60 1.652885
370.70 1.652402
370.80 1.651715
370.90 1.651028
371.00 1.650547
371.10 1.650068
371.20 1.649383
371.30 1.648698
371.40 1.648329
371.50 1.647745
371.60 1.647162
371.70 1.64658
371.80 1.645997
371.90 1.645415
372.00 1.645056
372.10 1.644462
372.20 1.643918
372.30 1.643373
372.40 1.642829
372.50 1.642285
372.60 1.641741
372.70 1.641198
372.80 1.640519
372.90 1.639841
373.00 1.639366
373.10 1.638893
373.20 1.638217
373.30 1.637542
373.40 1.637069
373.50 1.636595
373.60 1.636122
373.70 1.635247
373.80 1.634863
373.90 1.634303
374.00 1.633731
374.10 1.63316
374.20 1.632588
374.30 1.632017
374.40 1.631397
374.50 1.631067
374.60 1.630505
374.70 1.629936
374.80 1.629367
374.90 1.628799
375.00 1.628197
375.10 1.627596
375.20 1.626996
375.30 1.626471
375.40 1.625947
375.50 1.625422
375.60 1.624899
375.70 1.624376
375.80 1.623853
375.90 1.623331
376.00 1.622467
376.10 1.621948
376.20 1.621433
376.30 1.620917
376.40 1.620402
376.50 1.619858
376.60 1.619272
376.70 1.618686
376.80 1.618102
376.90 1.61752
377.00 1.616939
377.10 1.616359
377.20 1.615798
377.30 1.615311
377.40 1.614825
377.50 1.614338
377.60 1.613741
377.70 1.613143
377.80 1.612547
377.90 1.61195
378.00 1.611252
378.10 1.610716
378.20 1.610182
378.30 1.60965
378.40 1.609118
378.50 1.608585
378.60 1.608054
378.70 1.607522
378.80 1.606992
378.90 1.606452
379.00 1.605895
379.10 1.605204
379.20 1.604514
379.30 1.603936
379.40 1.603469
379.50 1.603002
379.60 1.602516
379.70 1.60198
379.80 1.601374
379.90 1.600768
380.00 1.600163
380.10 1.599558
380.20 1.598954
380.30 1.59835
380.40 1.597746
380.50 1.597142
380.60 1.596801
380.70 1.596226
380.80 1.595652
380.90 1.595079
381.00 1.594506
381.10 1.593912
381.20 1.593393
381.30 1.592846
381.40 1.592394
381.50 1.591757
381.60 1.591172
381.70 1.590595
381.80 1.590148
381.90 1.589315
382.00 1.588869
382.10 1.588423
382.20 1.587745
382.30 1.5873
382.40 1.586806
382.50 1.586239
382.60 1.585672
382.70 1.584983
382.80 1.584289
382.90 1.58373
383.00 1.583172
383.10 1.582613
383.20 1.582043
383.30 1.581429
383.40 1.580841
383.50 1.58029
383.60 1.579871
383.70 1.5793
383.80 1.578729
383.90 1.578158
384.00 1.577588
384.10 1.577017
384.20 1.576447
384.30 1.575878
384.40 1.575317
384.50 1.574764
384.60 1.574212
384.70 1.573658
384.80 1.573144
384.90 1.572671
385.00 1.572017
385.10 1.571374
385.20 1.571014
385.30 1.570391
385.40 1.569805
385.50 1.569255
385.60 1.568706
385.70 1.568158
385.80 1.5676
385.90 1.567009
386.00 1.566441
386.10 1.565899
386.20 1.56538
386.30 1.564861
386.40 1.564197
386.50 1.563542
386.60 1.562955
386.70 1.562523
386.80 1.561809
386.90 1.561284
387.00 1.560854
387.10 1.560056
387.20 1.559616
387.30 1.559186
387.40 1.558479
387.50 1.557953
387.60 1.557562
387.70 1.556946
387.80 1.556331
387.90 1.555715
388.00 1.555153
388.10 1.554633
388.20 1.553951
388.30 1.553388
388.40 1.552824
388.50 1.552294
388.60 1.551753
388.70 1.551292
388.80 1.550669
388.90 1.550104
389.00 1.5495
389.10 1.549035
389.20 1.548458
389.30 1.547797
389.40 1.547383
389.50 1.546815
389.60 1.546112
389.70 1.545665
389.80 1.545061
389.90 1.544458
390.00 1.543855
390.10 1.543252
390.20 1.54265
390.30 1.542099
390.40 1.541606
390.50 1.541113
390.60 1.540622
390.70 1.54013
390.80 1.539594
390.90 1.539015
391.00 1.538331
391.10 1.537723
391.20 1.537183
391.30 1.536747
391.40 1.536145
391.50 1.535544
391.60 1.534943
391.70 1.534344
391.80 1.533744
391.90 1.533219
392.00 1.532706
392.10 1.532083
392.20 1.531501
392.30 1.531155
392.40 1.530616
392.50 1.529836
392.60 1.529422
392.70 1.528707
392.80 1.528229
392.90 1.527519
393.00 1.526936
393.10 1.526386
393.20 1.525866
393.30 1.525272
393.40 1.524753
393.50 1.524251
393.60 1.523699
393.70 1.523065
393.80 1.522671
393.90 1.52208
394.00 1.521472
394.10 1.520873
394.20 1.520469
394.30 1.519882
394.40 1.519141
394.50 1.518703
394.60 1.518135
394.70 1.51756
394.80 1.516957
394.90 1.516361
395.00 1.515942
395.10 1.515428
395.20 1.514862
395.30 1.514214
395.40 1.513565
395.50 1.513045
395.60 1.512572
395.70 1.512082
395.80 1.511544
395.90 1.511007
396.00 1.510449
396.10 1.509734
396.20 1.509152
396.30 1.508522
396.40 1.508118
396.50 1.507358
396.60 1.506955
396.70 1.506322
396.80 1.505794
396.90 1.505393
397.00 1.504634
397.10 1.504174
397.20 1.503557
397.30 1.503107
397.40 1.502462
397.50 1.501818
397.60 1.501188
397.70 1.500685
397.80 1.500183
397.90 1.499681
398.00 1.499181
398.10 1.498682
398.20 1.498133
398.30 1.497526
398.40 1.496923
398.50 1.496444
398.60 1.495768
398.70 1.495133
398.80 1.494527
398.90 1.493964
399.00 1.493476
399.10 1.493096
399.20 1.49251
399.30 1.491925
399.40 1.49134
399.50 1.490755
399.60 1.490217
399.70 1.489696
399.80 1.489176
399.90 1.488655
400.00 1.488129
400.10 1.487385
400.20 1.486888
400.30 1.486362
400.40 1.485758
400.50 1.485117
400.60 1.484503
400.70 1.483938
400.80 1.483596
400.90 1.482912
401.00 1.482466
401.10 1.481726
401.20 1.481263
401.30 1.480861
401.40 1.480306
401.50 1.479697
401.60 1.479094
401.70 1.478627
401.80 1.477963
401.90 1.47741
402.00 1.476841
402.10 1.476454
402.20 1.47572
402.30 1.475187
402.40 1.474601
402.50 1.474216
402.60 1.473484
402.70 1.473099
402.80 1.472367
402.90 1.471775
403.00 1.471218
403.10 1.470869
403.20 1.470148
403.30 1.469686
403.40 1.469028
403.50 1.468462
403.60 1.467947
403.70 1.467536
403.80 1.466816
403.90 1.466286
404.00 1.465703
404.10 1.465322
404.20 1.464769
404.30 1.464217
404.40 1.463493
404.50 1.462942
404.60 1.46239
404.70 1.462011
404.80 1.461299
404.90 1.46091
405.00 1.460189
405.10 1.459664
405.20 1.459188
405.30 1.458713
405.40 1.458165
405.50 1.457617
405.60 1.45707
405.70 1.456522
405.80 1.455975
405.90 1.455429
406.00 1.454849
406.10 1.45427
406.20 1.453692
406.30 1.453114
406.40 1.452532
406.50 1.451903
406.60 1.451443
406.70 1.450835
406.80 1.450255
406.90 1.449648
407.00 1.449106
407.10 1.448564
407.20 1.448022
407.30 1.447481
407.40 1.44694
407.50 1.446399
407.60 1.445859
407.70 1.445319
407.80 1.444779
407.90 1.444241
408.00 1.443718
408.10 1.443159
408.20 1.442539
408.30 1.441943
408.40 1.441346
408.50 1.441007
408.60 1.440419
408.70 1.439831
408.80 1.439273
408.90 1.438894
409.00 1.43832
409.10 1.437745
409.20 1.437172
409.30 1.436598
409.40 1.436025
409.50 1.435443
409.60 1.43486
409.70 1.434286
409.80 1.433741
409.90 1.4332
410.00 1.432826
410.10 1.432128
410.20 1.431534
410.30 1.430967
410.40 1.430421
410.50 1.429945
410.60 1.429468
410.70 1.428974
410.80 1.428414
410.90 1.427853
411.00 1.427264
411.10 1.426664
411.20 1.426064
411.30 1.425503
411.40 1.42509
411.50 1.424515
411.60 1.42394
411.70 1.423375
411.80 1.42285
411.90 1.422292
412.00 1.421602
412.10 1.421243
412.20 1.420554
412.30 1.420195
412.40 1.419507
412.50 1.418866
412.60 1.418414
412.70 1.417877
412.80 1.417319
412.90 1.416744
413.00 1.416407
413.10 1.415852
413.20 1.415298
413.30 1.414743
413.40 1.414189
413.50 1.41361
413.60 1.412966
413.70 1.412448
413.80 1.41193
413.90 1.411411
414.00 1.410894
414.10 1.410376
414.20 1.40982
414.30 1.40914
414.40 1.408721
414.50 1.408108
414.60 1.407468
414.70 1.406952
414.80 1.406438
414.90 1.405923
415.00 1.405409
415.10 1.404895
415.20 1.404367
415.30 1.403793
415.40 1.403219
415.50 1.402646
415.60 1.402088
415.70 1.401529
415.80 1.40097
415.90 1.400403
416.00 1.399837
416.10 1.399281
416.20 1.398764
416.30 1.398248
416.40 1.397732
416.50 1.397217
416.60 1.396708
416.70 1.396196
416.80 1.395525
416.90 1.39503
417.00 1.394511
417.10 1.393847
417.20 1.39334
417.30 1.392833
417.40 1.39228
417.50 1.391727
417.60 1.391207
417.70 1.390812
417.80 1.390253
417.90 1.389695
418.00 1.389138
418.10 1.388581
418.20 1.388025
418.30 1.387464
418.40 1.386835
418.50 1.386312
418.60 1.385789
418.70 1.385266
418.80 1.384745
418.90 1.384222
419.00 1.383701
419.10 1.383181
419.20 1.382659
419.30 1.382139
419.40 1.381592
419.50 1.381047
419.60 1.380501
419.70 1.379951
419.80 1.379401
419.90 1.378856
420.00 1.378325
420.10 1.377793
420.20 1.377263
420.30 1.376733
420.40 1.376202
420.50 1.375672
420.60 1.375142
420.70 1.374614
420.80 1.374085
420.90 1.373556
421.00 1.373018
421.10 1.37248
421.20 1.371936
421.30 1.371376
421.40 1.370816
421.50 1.370256
421.60 1.369696
421.70 1.369136
421.80 1.368578
421.90 1.368035
422.00 1.367541
422.10 1.367038
422.20 1.366489
422.30 1.365942
422.40 1.365395
422.50 1.364861
422.60 1.364326
422.70 1.363792
422.80 1.363258
422.90 1.362725
423.00 1.362192
423.10 1.361659
423.20 1.361127
423.30 1.360595
423.40 1.360063
423.50 1.359532
423.60 1.359002
423.70 1.358471
423.80 1.357941
423.90 1.35741
424.00 1.356881
424.10 1.356353
424.20 1.355823
424.30 1.355295
424.40 1.354744
424.50 1.354199
424.60 1.353656
424.70 1.353114
424.80 1.352571
424.90 1.352029
425.00 1.351487
425.10 1.350945
425.20 1.350405
425.30 1.349864
425.40 1.349325
