# Version 2.1 - nm, norm@500 to 1, cut digits, bergeron_15000_80.dat_15000
# Wavelength(nm)  Flambda(ergs/cm^s/s/nm)
300.00 2.286
300.10 2.284
300.20 2.282
300.30 2.28
300.40 2.279
300.50 2.277
300.60 2.275
300.70 2.273
300.80 2.271
300.90 2.27
301.00 2.268
301.10 2.266
301.20 2.264
301.30 2.263
301.40 2.261
301.50 2.259
301.60 2.257
301.70 2.255
301.80 2.254
301.90 2.252
302.00 2.25
302.10 2.248
302.20 2.247
302.30 2.245
302.40 2.243
302.50 2.241
302.60 2.24
302.70 2.238
302.80 2.236
302.90 2.234
303.00 2.233
303.10 2.231
303.20 2.229
303.30 2.227
303.40 2.226
303.50 2.224
303.60 2.222
303.70 2.22
303.80 2.219
303.90 2.217
304.00 2.215
304.10 2.213
304.20 2.212
304.30 2.21
304.40 2.208
304.50 2.207
304.60 2.205
304.70 2.203
304.80 2.201
304.90 2.2
305.00 2.198
305.10 2.196
305.20 2.195
305.30 2.193
305.40 2.191
305.50 2.19
305.60 2.188
305.70 2.186
305.80 2.184
305.90 2.183
306.00 2.181
306.10 2.179
306.20 2.178
306.30 2.176
306.40 2.174
306.50 2.173
306.60 2.171
306.70 2.169
306.80 2.168
306.90 2.166
307.00 2.164
307.10 2.163
307.20 2.161
307.30 2.159
307.40 2.158
307.50 2.156
307.60 2.154
307.70 2.153
307.80 2.151
307.90 2.149
308.00 2.148
308.10 2.146
308.20 2.144
308.30 2.143
308.40 2.141
308.50 2.139
308.60 2.138
308.70 2.136
308.80 2.134
308.90 2.133
309.00 2.131
309.10 2.129
309.20 2.128
309.30 2.126
309.40 2.125
309.50 2.123
309.60 2.121
309.70 2.12
309.80 2.118
309.90 2.116
310.00 2.115
310.10 2.113
310.20 2.112
310.30 2.11
310.40 2.108
310.50 2.107
310.60 2.105
310.70 2.103
310.80 2.102
310.90 2.1
311.00 2.099
311.10 2.097
311.20 2.095
311.30 2.094
311.40 2.092
311.50 2.091
311.60 2.089
311.70 2.087
311.80 2.086
311.90 2.084
312.00 2.083
312.10 2.081
312.20 2.079
312.30 2.078
312.40 2.076
312.50 2.075
312.60 2.073
312.70 2.072
312.80 2.07
312.90 2.068
313.00 2.067
313.10 2.065
313.20 2.064
313.30 2.062
313.40 2.061
313.50 2.059
313.60 2.057
313.70 2.056
313.80 2.054
313.90 2.053
314.00 2.051
314.10 2.05
314.20 2.048
314.30 2.047
314.40 2.045
314.50 2.043
314.60 2.042
314.70 2.04
314.80 2.039
314.90 2.037
315.00 2.036
315.10 2.034
315.20 2.033
315.30 2.031
315.40 2.03
315.50 2.028
315.60 2.026
315.70 2.025
315.80 2.023
315.90 2.022
316.00 2.02
316.10 2.019
316.20 2.017
316.30 2.016
316.40 2.014
316.50 2.013
316.60 2.011
316.70 2.01
316.80 2.008
316.90 2.007
317.00 2.005
317.10 2.004
317.20 2.002
317.30 2.001
317.40 1.999
317.50 1.998
317.60 1.996
317.70 1.995
317.80 1.993
317.90 1.992
318.00 1.99
318.10 1.989
318.20 1.987
318.30 1.986
318.40 1.984
318.50 1.983
318.60 1.981
318.70 1.98
318.80 1.978
318.90 1.977
319.00 1.975
319.10 1.974
319.20 1.972
319.30 1.971
319.40 1.969
319.50 1.968
319.60 1.966
319.70 1.965
319.80 1.964
319.90 1.962
320.00 1.961
320.10 1.959
320.20 1.958
320.30 1.956
320.40 1.955
320.50 1.953
320.60 1.952
320.70 1.95
320.80 1.949
320.90 1.947
321.00 1.946
321.10 1.945
321.20 1.943
321.30 1.942
321.40 1.94
321.50 1.939
321.60 1.937
321.70 1.936
321.80 1.934
321.90 1.933
322.00 1.932
322.10 1.93
322.20 1.929
322.30 1.927
322.40 1.926
322.50 1.924
322.60 1.923
322.70 1.922
322.80 1.92
322.90 1.919
323.00 1.917
323.10 1.916
323.20 1.914
323.30 1.913
323.40 1.912
323.50 1.91
323.60 1.909
323.70 1.907
323.80 1.906
323.90 1.905
324.00 1.903
324.10 1.902
324.20 1.9
324.30 1.899
324.40 1.897
324.50 1.896
324.60 1.895
324.70 1.893
324.80 1.892
324.90 1.89
325.00 1.889
325.10 1.888
325.20 1.886
325.30 1.885
325.40 1.884
325.50 1.882
325.60 1.881
325.70 1.879
325.80 1.878
325.90 1.877
326.00 1.875
326.10 1.874
326.20 1.872
326.30 1.871
326.40 1.87
326.50 1.868
326.60 1.867
326.70 1.866
326.80 1.864
326.90 1.863
327.00 1.861
327.10 1.86
327.20 1.859
327.30 1.857
327.40 1.856
327.50 1.855
327.60 1.853
327.70 1.852
327.80 1.851
327.90 1.849
328.00 1.848
328.10 1.847
328.20 1.845
328.30 1.844
328.40 1.842
328.50 1.841
328.60 1.84
328.70 1.838
328.80 1.837
328.90 1.836
329.00 1.834
329.10 1.833
329.20 1.832
329.30 1.83
329.40 1.829
329.50 1.828
329.60 1.826
329.70 1.825
329.80 1.824
329.90 1.822
330.00 1.821
330.10 1.82
330.20 1.818
330.30 1.817
330.40 1.816
330.50 1.814
330.60 1.813
330.70 1.812
330.80 1.81
330.90 1.809
331.00 1.808
331.10 1.807
331.20 1.805
331.30 1.804
331.40 1.803
331.50 1.801
331.60 1.8
331.70 1.799
331.80 1.797
331.90 1.796
332.00 1.795
332.10 1.793
332.20 1.792
332.30 1.791
332.40 1.79
332.50 1.788
332.60 1.787
332.70 1.786
332.80 1.784
332.90 1.783
333.00 1.782
333.10 1.781
333.20 1.779
333.30 1.778
333.40 1.777
333.50 1.775
333.60 1.774
333.70 1.773
333.80 1.772
333.90 1.77
334.00 1.769
334.10 1.768
334.20 1.766
334.30 1.765
334.40 1.764
334.50 1.763
334.60 1.761
334.70 1.76
334.80 1.759
334.90 1.758
335.00 1.756
335.10 1.755
335.20 1.754
335.30 1.752
335.40 1.751
335.50 1.75
335.60 1.749
335.70 1.747
335.80 1.746
335.90 1.745
336.00 1.744
336.10 1.742
336.20 1.741
336.30 1.74
336.40 1.739
336.50 1.737
336.60 1.736
336.70 1.735
336.80 1.734
336.90 1.732
337.00 1.731
337.10 1.73
337.20 1.729
337.30 1.727
337.40 1.726
337.50 1.725
337.60 1.724
337.70 1.723
337.80 1.721
337.90 1.72
338.00 1.719
338.10 1.718
338.20 1.716
338.30 1.715
338.40 1.714
338.50 1.713
338.60 1.711
338.70 1.71
338.80 1.709
338.90 1.708
339.00 1.707
339.10 1.705
339.20 1.704
339.30 1.703
339.40 1.702
339.50 1.701
339.60 1.699
339.70 1.698
339.80 1.697
339.90 1.696
340.00 1.694
340.10 1.693
340.20 1.692
340.30 1.691
340.40 1.69
340.50 1.688
340.60 1.687
340.70 1.686
340.80 1.685
340.90 1.684
341.00 1.682
341.10 1.681
341.20 1.68
341.30 1.679
341.40 1.678
341.50 1.677
341.60 1.675
341.70 1.674
341.80 1.673
341.90 1.672
342.00 1.671
342.10 1.669
342.20 1.668
342.30 1.667
342.40 1.666
342.50 1.665
342.60 1.663
342.70 1.662
342.80 1.661
342.90 1.66
343.00 1.659
343.10 1.658
343.20 1.656
343.30 1.655
343.40 1.654
343.50 1.653
343.60 1.652
343.70 1.651
343.80 1.649
343.90 1.648
344.00 1.647
344.10 1.646
344.20 1.645
344.30 1.644
344.40 1.642
344.50 1.641
344.60 1.64
344.70 1.639
344.80 1.638
344.90 1.637
345.00 1.636
345.10 1.634
345.20 1.633
345.30 1.632
345.40 1.631
345.50 1.63
345.60 1.629
345.70 1.628
345.80 1.626
345.90 1.625
346.00 1.624
346.10 1.623
346.20 1.622
346.30 1.621
346.40 1.62
346.50 1.618
346.60 1.617
346.70 1.616
346.80 1.615
346.90 1.614
347.00 1.613
347.10 1.612
347.20 1.61
347.30 1.609
347.40 1.608
347.50 1.607
347.60 1.606
347.70 1.605
347.80 1.604
347.90 1.603
348.00 1.601
348.10 1.6
348.20 1.599
348.30 1.598
348.40 1.597
348.50 1.596
348.60 1.595
348.70 1.594
348.80 1.593
348.90 1.591
349.00 1.59
349.10 1.589
349.20 1.588
349.30 1.587
349.40 1.586
349.50 1.585
349.60 1.584
349.70 1.583
349.80 1.581
349.90 1.58
350.00 1.579
350.10 1.578
350.20 1.577
350.30 1.576
350.40 1.575
350.50 1.574
350.60 1.573
350.70 1.572
350.80 1.571
350.90 1.569
351.00 1.568
351.10 1.567
351.20 1.566
351.30 1.565
351.40 1.564
351.50 1.563
351.60 1.562
351.70 1.561
351.80 1.56
351.90 1.559
352.00 1.557
352.10 1.556
352.20 1.555
352.30 1.554
352.40 1.553
352.50 1.552
352.60 1.551
352.70 1.55
352.80 1.549
352.90 1.548
353.00 1.547
353.10 1.546
353.20 1.545
353.30 1.544
353.40 1.542
353.50 1.541
353.60 1.54
353.70 1.539
353.80 1.538
353.90 1.537
354.00 1.536
354.10 1.535
354.20 1.534
354.30 1.533
354.40 1.532
354.50 1.531
354.60 1.53
354.70 1.529
354.80 1.528
354.90 1.527
355.00 1.526
355.10 1.524
355.20 1.523
355.30 1.522
355.40 1.521
355.50 1.52
355.60 1.519
355.70 1.518
355.80 1.517
355.90 1.516
356.00 1.515
356.10 1.514
356.20 1.513
356.30 1.512
356.40 1.511
356.50 1.51
356.60 1.509
356.70 1.508
356.80 1.507
356.90 1.506
357.00 1.505
357.10 1.504
357.20 1.503
357.30 1.502
357.40 1.501
357.50 1.5
357.60 1.499
357.70 1.497
357.80 1.496
357.90 1.495
358.00 1.494
358.10 1.493
358.20 1.492
358.30 1.491
358.40 1.49
358.50 1.489
358.60 1.488
358.70 1.487
358.80 1.486
358.90 1.485
359.00 1.484
359.10 1.483
359.20 1.482
359.30 1.481
359.40 1.48
359.50 1.479
359.60 1.478
359.70 1.477
359.80 1.476
359.90 1.475
360.00 1.474
360.10 1.473
360.20 1.472
360.30 1.471
360.40 1.47
360.50 1.469
360.60 1.468
360.70 1.467
360.80 1.466
360.90 1.465
361.00 1.464
361.10 1.463
361.20 1.462
361.30 1.461
361.40 1.46
361.50 1.459
361.60 1.458
361.70 1.457
361.80 1.456
361.90 1.455
362.00 1.454
362.10 1.453
362.20 1.452
362.30 1.451
362.40 1.45
362.50 1.449
362.60 1.448
362.70 1.447
362.80 1.446
362.90 1.445
363.00 1.444
363.10 1.443
363.20 1.442
363.30 1.441
363.40 1.44
363.50 1.439
363.60 1.438
363.70 1.437
363.80 1.436
363.90 1.435
364.00 1.434
364.10 1.433
364.20 1.432
364.30 1.431
364.40 1.429
364.50 1.428
364.60 1.427
364.70 1.426
364.80 1.425
364.90 1.424
365.00 1.423
365.10 1.422
365.20 1.421
365.30 1.42
365.40 1.419
365.50 1.418
365.60 1.416
365.70 1.415
365.80 1.414
365.90 1.413
366.00 1.412
366.10 1.411
366.20 1.41
366.30 1.409
366.40 1.408
366.50 1.407
366.60 1.406
366.70 1.405
366.80 1.404
366.90 1.403
367.00 1.402
367.10 1.401
367.20 1.4
367.30 1.399
367.40 1.398
367.50 1.397
367.60 1.397
367.70 1.396
367.80 1.395
367.90 1.394
368.00 1.393
368.10 1.392
368.20 1.391
368.30 1.39
368.40 1.389
368.50 1.388
368.60 1.388
368.70 1.387
368.80 1.386
368.90 1.385
369.00 1.384
369.10 1.383
369.20 1.383
369.30 1.382
369.40 1.381
369.50 1.38
369.60 1.379
369.70 1.378
369.80 1.378
369.90 1.377
370.00 1.376
370.10 1.376
370.20 1.375
370.30 1.375
370.40 1.375
370.50 1.374
370.60 1.374
370.70 1.373
370.80 1.373
370.90 1.373
371.00 1.372
371.10 1.372
371.20 1.372
371.30 1.371
371.40 1.371
371.50 1.371
371.60 1.37
371.70 1.37
371.80 1.37
371.90 1.369
372.00 1.369
372.10 1.369
372.20 1.37
372.30 1.37
372.40 1.37
372.50 1.371
372.60 1.371
372.70 1.371
372.80 1.372
372.90 1.372
373.00 1.373
373.10 1.373
373.20 1.373
373.30 1.374
373.40 1.374
373.50 1.375
373.60 1.375
373.70 1.375
373.80 1.376
373.90 1.376
374.00 1.376
374.10 1.377
374.20 1.378
374.30 1.379
374.40 1.38
374.50 1.381
374.60 1.381
374.70 1.382
374.80 1.383
374.90 1.384
375.00 1.385
375.10 1.385
375.20 1.386
375.30 1.387
375.40 1.388
375.50 1.389
375.60 1.389
375.70 1.39
375.80 1.391
375.90 1.392
376.00 1.393
376.10 1.393
376.20 1.393
376.30 1.394
376.40 1.394
376.50 1.395
376.60 1.395
376.70 1.395
376.80 1.396
376.90 1.396
377.00 1.396
377.10 1.395
377.20 1.394
377.30 1.393
377.40 1.392
377.50 1.391
377.60 1.39
377.70 1.389
377.80 1.388
377.90 1.387
378.00 1.386
378.10 1.381
378.20 1.376
378.30 1.37
378.40 1.365
378.50 1.36
378.60 1.354
378.70 1.349
378.80 1.344
378.90 1.339
379.00 1.333
379.10 1.33
379.20 1.326
379.30 1.322
379.40 1.318
379.50 1.315
379.60 1.311
379.70 1.307
379.80 1.304
379.90 1.3
380.00 1.296
380.10 1.302
380.20 1.307
380.30 1.312
380.40 1.318
380.50 1.323
380.60 1.328
380.70 1.334
380.80 1.339
380.90 1.344
381.00 1.35
381.10 1.351
381.20 1.353
381.30 1.355
381.40 1.356
381.50 1.358
381.60 1.357
381.70 1.355
381.80 1.352
381.90 1.348
382.00 1.344
382.10 1.338
382.20 1.331
382.30 1.318
382.40 1.305
382.50 1.293
382.60 1.28
382.70 1.267
382.80 1.255
382.90 1.242
383.00 1.229
383.10 1.217
383.20 1.204
383.30 1.195
383.40 1.184
383.50 1.173
383.60 1.175
383.70 1.187
383.80 1.198
383.90 1.207
384.00 1.219
384.10 1.235
384.20 1.251
384.30 1.268
384.40 1.284
384.50 1.298
384.60 1.311
384.70 1.323
384.80 1.333
384.90 1.342
385.00 1.35
385.10 1.357
385.20 1.362
385.30 1.367
385.40 1.37
385.50 1.373
385.60 1.375
385.70 1.376
385.80 1.377
385.90 1.376
386.00 1.375
386.10 1.373
386.20 1.371
386.30 1.368
386.40 1.364
386.50 1.359
386.60 1.354
386.70 1.348
386.80 1.341
386.90 1.333
387.00 1.325
387.10 1.316
387.20 1.306
387.30 1.295
387.40 1.284
387.50 1.271
387.60 1.257
387.70 1.242
387.80 1.225
387.90 1.206
388.00 1.186
388.10 1.164
388.20 1.139
388.30 1.114
388.40 1.086
388.50 1.062
388.60 1.039
388.70 1.022
388.80 1.007
388.90 0.9934
389.00 1.005
389.10 1.02
389.20 1.037
389.30 1.059
389.40 1.083
389.50 1.11
389.60 1.136
389.70 1.161
389.80 1.185
389.90 1.206
390.00 1.225
390.10 1.243
390.20 1.26
390.30 1.275
390.40 1.29
390.50 1.304
390.60 1.317
390.70 1.329
390.80 1.34
390.90 1.351
391.00 1.362
391.10 1.372
391.20 1.381
391.30 1.39
391.40 1.399
391.50 1.406
391.60 1.414
391.70 1.42
391.80 1.426
391.90 1.432
392.00 1.437
392.10 1.441
392.20 1.444
392.30 1.447
392.40 1.449
392.50 1.451
392.60 1.451
392.70 1.451
392.80 1.451
392.90 1.449
393.00 1.447
393.10 1.444
393.20 1.44
393.30 1.436
393.40 1.431
393.50 1.425
393.60 1.419
393.70 1.412
393.80 1.404
393.90 1.395
394.00 1.386
394.10 1.376
394.20 1.365
394.30 1.354
394.40 1.341
394.50 1.329
394.60 1.316
394.70 1.302
394.80 1.288
394.90 1.273
395.00 1.258
395.10 1.242
395.20 1.226
395.30 1.209
395.40 1.192
395.50 1.174
395.60 1.156
395.70 1.137
395.80 1.117
395.90 1.097
396.00 1.075
396.10 1.053
396.20 1.029
396.30 1.002
396.40 0.9737
396.50 0.9412
396.60 0.9087
396.70 0.8763
396.80 0.8498
396.90 0.8213
397.00 0.791
397.10 0.8185
397.20 0.8449
397.30 0.8701
397.40 0.9015
397.50 0.9331
397.60 0.9649
397.70 0.993
397.80 1.019
397.90 1.043
398.00 1.065
398.10 1.085
398.20 1.105
398.30 1.124
398.40 1.143
398.50 1.161
398.60 1.178
398.70 1.195
398.80 1.212
398.90 1.228
399.00 1.244
399.10 1.26
399.20 1.275
399.30 1.29
399.40 1.305
399.50 1.319
399.60 1.333
399.70 1.347
399.80 1.36
399.90 1.373
400.00 1.386
400.10 1.398
400.20 1.41
400.30 1.422
400.40 1.432
400.50 1.443
400.60 1.453
400.70 1.463
400.80 1.472
400.90 1.481
401.00 1.49
401.10 1.498
401.20 1.506
401.30 1.513
401.40 1.52
401.50 1.527
401.60 1.533
401.70 1.539
401.80 1.544
401.90 1.549
402.00 1.554
402.10 1.558
402.20 1.562
402.30 1.565
402.40 1.569
402.50 1.571
402.60 1.574
402.70 1.576
402.80 1.578
402.90 1.579
403.00 1.58
403.10 1.58
403.20 1.581
403.30 1.581
403.40 1.58
403.50 1.579
403.60 1.578
403.70 1.577
403.80 1.575
403.90 1.572
404.00 1.57
404.10 1.567
404.20 1.563
404.30 1.56
404.40 1.556
404.50 1.551
404.60 1.546
404.70 1.541
404.80 1.536
404.90 1.53
405.00 1.523
405.10 1.517
405.20 1.509
405.30 1.502
405.40 1.494
405.50 1.486
405.60 1.477
405.70 1.468
405.80 1.459
405.90 1.449
406.00 1.439
406.10 1.429
406.20 1.418
406.30 1.407
406.40 1.395
406.50 1.383
406.60 1.37
406.70 1.358
406.80 1.345
406.90 1.331
407.00 1.317
407.10 1.303
407.20 1.288
407.30 1.273
407.40 1.258
407.50 1.242
407.60 1.226
407.70 1.21
407.80 1.193
407.90 1.176
408.00 1.159
408.10 1.142
408.20 1.125
408.30 1.107
408.40 1.089
408.50 1.071
408.60 1.053
408.70 1.034
408.80 1.015
408.90 0.9964
409.00 0.9773
409.10 0.9578
409.20 0.9379
409.30 0.9176
409.40 0.8953
409.50 0.8713
409.60 0.8457
409.70 0.8162
409.80 0.7856
409.90 0.7538
410.00 0.7202
410.10 0.6899
410.20 0.663
410.30 0.7022
410.40 0.7375
410.50 0.7689
410.60 0.7995
410.70 0.8284
410.80 0.8556
410.90 0.879
411.00 0.9009
411.10 0.9213
411.20 0.9402
411.30 0.9588
411.40 0.977
411.50 0.9948
411.60 1.012
411.70 1.03
411.80 1.047
411.90 1.064
412.00 1.081
412.10 1.097
412.20 1.113
412.30 1.129
412.40 1.145
412.50 1.161
412.60 1.176
412.70 1.191
412.80 1.206
412.90 1.221
413.00 1.235
413.10 1.249
413.20 1.263
413.30 1.276
413.40 1.289
413.50 1.302
413.60 1.314
413.70 1.326
413.80 1.337
413.90 1.349
414.00 1.36
414.10 1.371
414.20 1.381
414.30 1.391
414.40 1.401
414.50 1.411
414.60 1.42
414.70 1.43
414.80 1.438
414.90 1.447
415.00 1.455
415.10 1.463
415.20 1.471
415.30 1.479
415.40 1.486
415.50 1.493
415.60 1.5
415.70 1.506
415.80 1.513
415.90 1.519
416.00 1.525
416.10 1.53
416.20 1.536
416.30 1.541
416.40 1.546
416.50 1.551
416.60 1.556
416.70 1.561
416.80 1.565
416.90 1.569
417.00 1.573
417.10 1.577
417.20 1.581
417.30 1.584
417.40 1.588
417.50 1.591
417.60 1.594
417.70 1.597
417.80 1.6
417.90 1.603
418.00 1.605
418.10 1.607
418.20 1.61
418.30 1.612
418.40 1.614
418.50 1.616
418.60 1.618
418.70 1.619
418.80 1.621
418.90 1.622
419.00 1.624
419.10 1.625
419.20 1.626
419.30 1.627
419.40 1.628
419.50 1.629
419.60 1.63
419.70 1.63
419.80 1.631
419.90 1.631
420.00 1.632
420.10 1.632
420.20 1.632
420.30 1.632
420.40 1.632
420.50 1.632
420.60 1.632
420.70 1.632
420.80 1.632
420.90 1.632
421.00 1.631
421.10 1.631
421.20 1.63
421.30 1.63
421.40 1.629
421.50 1.628
421.60 1.628
421.70 1.627
421.80 1.626
421.90 1.625
422.00 1.624
422.10 1.622
422.20 1.621
422.30 1.62
422.40 1.619
422.50 1.617
422.60 1.616
422.70 1.614
422.80 1.612
422.90 1.611
423.00 1.609
423.10 1.607
423.20 1.605
423.30 1.603
423.40 1.601
423.50 1.599
423.60 1.597
423.70 1.594
423.80 1.592
423.90 1.59
424.00 1.587
424.10 1.584
424.20 1.582
424.30 1.579
424.40 1.576
424.50 1.573
424.60 1.57
424.70 1.567
424.80 1.564
424.90 1.561
425.00 1.558
425.10 1.554
425.20 1.551
425.30 1.547
425.40 1.543
425.50 1.54
425.60 1.536
425.70 1.532
425.80 1.528
425.90 1.524
426.00 1.519
426.10 1.515
426.20 1.509
426.30 1.504
426.40 1.5
426.50 1.495
426.60 1.49
426.70 1.485
426.80 1.479
426.90 1.474
427.00 1.468
427.10 1.463
427.20 1.457
427.30 1.451
427.40 1.445
427.50 1.439
427.60 1.433
427.70 1.426
427.80 1.42
427.90 1.413
428.00 1.406
428.10 1.399
428.20 1.392
428.30 1.384
428.40 1.377
428.50 1.369
428.60 1.361
428.70 1.353
428.80 1.345
428.90 1.336
429.00 1.328
429.10 1.319
429.20 1.31
429.30 1.301
429.40 1.291
429.50 1.282
429.60 1.272
429.70 1.262
429.80 1.252
429.90 1.241
430.00 1.231
430.10 1.22
430.20 1.209
430.30 1.198
430.40 1.186
430.50 1.175
430.60 1.163
430.70 1.151
430.80 1.139
430.90 1.127
431.00 1.114
431.10 1.101
431.20 1.088
431.30 1.075
431.40 1.062
431.50 1.049
431.60 1.035
431.70 1.021
431.80 1.007
431.90 0.993
432.00 0.9785
432.10 0.9639
432.20 0.9488
432.30 0.9334
432.40 0.9177
432.50 0.9012
432.60 0.8844
432.70 0.8672
432.80 0.8497
432.90 0.8323
433.00 0.8149
433.10 0.7983
433.20 0.7815
433.30 0.7646
433.40 0.7459
433.50 0.7257
433.60 0.7039
433.70 0.6768
433.80 0.6463
433.90 0.6126
434.00 0.5537
434.10 0.5545
434.20 0.6151
434.30 0.6477
434.40 0.677
434.50 0.7032
434.60 0.724
434.70 0.7433
434.80 0.761
434.90 0.777
435.00 0.7929
435.10 0.8087
435.20 0.8251
435.30 0.8415
435.40 0.8579
435.50 0.874
435.60 0.8896
435.70 0.9048
435.80 0.9192
435.90 0.9333
436.00 0.9471
436.10 0.9605
436.20 0.9736
436.30 0.9865
436.40 0.999
436.50 1.011
436.60 1.023
436.70 1.035
436.80 1.047
436.90 1.058
437.00 1.07
437.10 1.081
437.20 1.092
437.30 1.102
437.40 1.113
437.50 1.123
437.60 1.133
437.70 1.142
437.80 1.152
437.90 1.161
438.00 1.17
438.10 1.179
438.20 1.188
438.30 1.196
438.40 1.205
438.50 1.213
438.60 1.221
438.70 1.228
438.80 1.236
438.90 1.243
439.00 1.25
439.10 1.257
439.20 1.263
439.30 1.27
439.40 1.276
439.50 1.282
439.60 1.288
439.70 1.294
439.80 1.299
439.90 1.304
440.00 1.31
440.10 1.315
440.20 1.32
440.30 1.324
440.40 1.329
440.50 1.333
440.60 1.337
440.70 1.342
440.80 1.346
440.90 1.35
441.00 1.353
441.10 1.357
441.20 1.36
441.30 1.364
441.40 1.367
441.50 1.37
441.60 1.373
441.70 1.376
441.80 1.379
441.90 1.382
442.00 1.384
442.10 1.387
442.20 1.389
442.30 1.392
442.40 1.394
442.50 1.396
442.60 1.398
442.70 1.4
442.80 1.402
442.90 1.403
443.00 1.405
443.10 1.407
443.20 1.408
443.30 1.41
443.40 1.411
443.50 1.413
443.60 1.414
443.70 1.415
443.80 1.417
443.90 1.418
444.00 1.419
444.10 1.42
444.20 1.421
444.30 1.422
444.40 1.423
444.50 1.423
444.60 1.424
444.70 1.425
444.80 1.426
444.90 1.426
445.00 1.427
445.10 1.427
445.20 1.428
445.30 1.428
445.40 1.429
445.50 1.429
445.60 1.43
445.70 1.43
445.80 1.43
445.90 1.43
446.00 1.431
446.10 1.431
446.20 1.431
446.30 1.431
446.40 1.431
446.50 1.431
446.60 1.431
446.70 1.432
446.80 1.432
446.90 1.432
447.00 1.431
447.10 1.431
447.20 1.431
447.30 1.431
447.40 1.431
447.50 1.431
447.60 1.431
447.70 1.43
447.80 1.43
447.90 1.43
448.00 1.43
448.10 1.43
448.20 1.429
448.30 1.429
448.40 1.429
448.50 1.428
448.60 1.428
448.70 1.427
448.80 1.427
448.90 1.427
449.00 1.427
449.10 1.426
449.20 1.426
449.30 1.425
449.40 1.425
449.50 1.424
449.60 1.424
449.70 1.423
449.80 1.423
449.90 1.422
450.00 1.422
450.10 1.421
450.20 1.421
450.30 1.42
450.40 1.419
450.50 1.419
450.60 1.418
450.70 1.418
450.80 1.417
450.90 1.416
451.00 1.416
451.10 1.415
451.20 1.414
451.30 1.414
451.40 1.413
451.50 1.412
451.60 1.412
451.70 1.411
451.80 1.41
451.90 1.41
452.00 1.409
452.10 1.408
452.20 1.407
452.30 1.407
452.40 1.406
452.50 1.405
452.60 1.404
452.70 1.404
452.80 1.403
452.90 1.402
453.00 1.401
453.10 1.401
453.20 1.4
453.30 1.399
453.40 1.398
453.50 1.398
