# Wavelength(nm)  Flambda(ergs/cm^s/s/nm)
300.00 2.310799
300.10 2.308777
300.20 2.306755
300.30 2.304734
300.40 2.303723
300.50 2.301701
300.60 2.299679
300.70 2.297658
300.80 2.295636
300.90 2.294625
301.00 2.292603
301.10 2.290582
301.20 2.28856
301.30 2.287549
301.40 2.285527
301.50 2.283506
301.60 2.281484
301.70 2.279462
301.80 2.278452
301.90 2.27643
302.00 2.274408
302.10 2.272386
302.20 2.271376
302.30 2.269354
302.40 2.267332
302.50 2.26531
302.60 2.2643
302.70 2.262278
302.80 2.260256
302.90 2.258235
303.00 2.257224
303.10 2.255202
303.20 2.25318
303.30 2.251159
303.40 2.250148
303.50 2.248126
303.60 2.246104
303.70 2.244083
303.80 2.243072
303.90 2.24105
304.00 2.239028
304.10 2.237007
304.20 2.235996
304.30 2.233974
304.40 2.231952
304.50 2.230942
304.60 2.22892
304.70 2.226898
304.80 2.224877
304.90 2.223866
305.00 2.221844
305.10 2.219822
305.20 2.218811
305.30 2.21679
305.40 2.214768
305.50 2.213757
305.60 2.211736
305.70 2.209714
305.80 2.207692
305.90 2.206681
306.00 2.20466
306.10 2.202638
306.20 2.201627
306.30 2.199605
306.40 2.197584
306.50 2.196573
306.60 2.194551
306.70 2.192529
306.80 2.191519
306.90 2.189497
307.00 2.187475
307.10 2.186464
307.20 2.184443
307.30 2.182421
307.40 2.18141
307.50 2.179388
307.60 2.177367
307.70 2.176356
307.80 2.174334
307.90 2.172312
308.00 2.171302
308.10 2.16928
308.20 2.167258
308.30 2.166247
308.40 2.164226
308.50 2.162204
308.60 2.161193
308.70 2.159171
308.80 2.15715
308.90 2.156139
309.00 2.154117
309.10 2.152095
309.20 2.151085
309.30 2.149063
309.40 2.148052
309.50 2.14603
309.60 2.144009
309.70 2.142998
309.80 2.140976
309.90 2.138954
310.00 2.137944
310.10 2.135922
310.20 2.134911
310.30 2.132889
310.40 2.130868
310.50 2.129857
310.60 2.127835
310.70 2.125813
310.80 2.124803
310.90 2.122781
311.00 2.12177
311.10 2.119748
311.20 2.117727
311.30 2.116716
311.40 2.114694
311.50 2.113683
311.60 2.111662
311.70 2.10964
311.80 2.108629
311.90 2.106607
312.00 2.105596
312.10 2.103575
312.20 2.101553
312.30 2.100542
312.40 2.098521
312.50 2.09751
312.60 2.095488
312.70 2.094477
312.80 2.092455
312.90 2.090434
313.00 2.089423
313.10 2.087401
313.20 2.08639
313.30 2.084369
313.40 2.083358
313.50 2.081336
313.60 2.079314
313.70 2.078304
313.80 2.076282
313.90 2.075271
314.00 2.073249
314.10 2.072239
314.20 2.070217
314.30 2.069206
314.40 2.067184
314.50 2.065163
314.60 2.064152
314.70 2.06213
314.80 2.061119
314.90 2.059097
315.00 2.058087
315.10 2.056065
315.20 2.055054
315.30 2.053032
315.40 2.052022
315.50 2.05
315.60 2.047978
315.70 2.046967
315.80 2.044946
315.90 2.043935
316.00 2.041913
316.10 2.040902
316.20 2.038881
316.30 2.03787
316.40 2.035848
316.50 2.034837
316.60 2.032815
316.70 2.031805
316.80 2.029783
316.90 2.028772
317.00 2.02675
317.10 2.025739
317.20 2.023718
317.30 2.022707
317.40 2.020685
317.50 2.019674
317.60 2.017653
317.70 2.016642
317.80 2.01462
317.90 2.013609
318.00 2.011588
318.10 2.010577
318.20 2.008555
318.30 2.007544
318.40 2.005523
318.50 2.004512
318.60 2.00249
318.70 2.001479
318.80 1.999457
318.90 1.998447
319.00 1.996425
319.10 1.995414
319.20 1.993392
319.30 1.992382
319.40 1.99036
319.50 1.989349
319.60 1.987327
319.70 1.986316
319.80 1.985306
319.90 1.983284
320.00 1.982273
320.10 1.980251
320.20 1.97924
320.30 1.977219
320.40 1.976208
320.50 1.974186
320.60 1.973175
320.70 1.971154
320.80 1.970143
320.90 1.968121
321.00 1.96711
321.10 1.966099
321.20 1.964078
321.30 1.963067
321.40 1.961045
321.50 1.960034
321.60 1.958013
321.70 1.957002
321.80 1.95498
321.90 1.953969
322.00 1.952958
322.10 1.950937
322.20 1.949926
322.30 1.947904
322.40 1.946893
322.50 1.944872
322.60 1.943861
322.70 1.94285
322.80 1.940828
322.90 1.939817
323.00 1.937796
323.10 1.936785
323.20 1.934763
323.30 1.933752
323.40 1.932741
323.50 1.93072
323.60 1.929709
323.70 1.927687
323.80 1.926676
323.90 1.925666
324.00 1.923644
324.10 1.922633
324.20 1.920611
324.30 1.9196
324.40 1.917579
324.50 1.916568
324.60 1.915557
324.70 1.913535
324.80 1.912525
324.90 1.910503
325.00 1.909492
325.10 1.908481
325.20 1.906459
325.30 1.905449
325.40 1.904438
325.50 1.902416
325.60 1.901405
325.70 1.899383
325.80 1.898373
325.90 1.897362
326.00 1.89534
326.10 1.894329
326.20 1.892308
326.30 1.891297
326.40 1.890286
326.50 1.888264
326.60 1.887253
326.70 1.886242
326.80 1.884221
326.90 1.88321
327.00 1.881188
327.10 1.880177
327.20 1.879167
327.30 1.877145
327.40 1.876134
327.50 1.875123
327.60 1.873101
327.70 1.872091
327.80 1.87108
327.90 1.869058
328.00 1.868047
328.10 1.867036
328.20 1.865015
328.30 1.864004
328.40 1.861982
328.50 1.860971
328.60 1.85996
328.70 1.857939
328.80 1.856928
328.90 1.855917
329.00 1.853895
329.10 1.852884
329.20 1.851874
329.30 1.849852
329.40 1.848841
329.50 1.84783
329.60 1.845809
329.70 1.844798
329.80 1.843787
329.90 1.841765
330.00 1.840754
330.10 1.839743
330.20 1.837722
330.30 1.836711
330.40 1.8357
330.50 1.833678
330.60 1.832668
330.70 1.831657
330.80 1.829635
330.90 1.828624
331.00 1.827613
331.10 1.826602
331.20 1.824581
331.30 1.82357
331.40 1.822559
331.50 1.820537
331.60 1.819526
331.70 1.818516
331.80 1.816494
331.90 1.815483
332.00 1.814472
332.10 1.812451
332.20 1.81144
332.30 1.810429
332.40 1.809418
332.50 1.807396
332.60 1.806385
332.70 1.805375
332.80 1.803353
332.90 1.802342
333.00 1.801331
333.10 1.80032
333.20 1.798299
333.30 1.797288
333.40 1.796277
333.50 1.794255
333.60 1.793244
333.70 1.792234
333.80 1.791223
333.90 1.789201
334.00 1.78819
334.10 1.787179
334.20 1.785158
334.30 1.784147
334.40 1.783136
334.50 1.782125
334.60 1.780103
334.70 1.779093
334.80 1.778082
334.90 1.777071
335.00 1.775049
335.10 1.774038
335.20 1.773027
335.30 1.771006
335.40 1.769995
335.50 1.768984
335.60 1.767973
335.70 1.765952
335.80 1.764941
335.90 1.76393
336.00 1.762919
336.10 1.760897
336.20 1.759886
336.30 1.758876
336.40 1.757865
336.50 1.755843
336.60 1.754832
336.70 1.753821
336.80 1.752811
336.90 1.750789
337.00 1.749778
337.10 1.748767
337.20 1.747756
337.30 1.745735
337.40 1.744724
337.50 1.743713
337.60 1.742702
337.70 1.741691
337.80 1.739669
337.90 1.738659
338.00 1.737648
338.10 1.736637
338.20 1.734615
338.30 1.733604
338.40 1.732594
338.50 1.731583
338.60 1.729561
338.70 1.72855
338.80 1.727539
338.90 1.726528
339.00 1.725518
339.10 1.723496
339.20 1.722485
339.30 1.721474
339.40 1.720463
339.50 1.719453
339.60 1.717431
339.70 1.71642
339.80 1.715409
339.90 1.714398
340.00 1.712377
340.10 1.711366
340.20 1.710355
340.30 1.709344
340.40 1.708333
340.50 1.706312
340.60 1.705301
340.70 1.70429
340.80 1.703279
340.90 1.702268
341.00 1.700246
341.10 1.699236
341.20 1.698225
341.30 1.697214
341.40 1.696203
341.50 1.695192
341.60 1.69317
341.70 1.69216
341.80 1.691149
341.90 1.690138
342.00 1.689127
342.10 1.687105
342.20 1.686095
342.30 1.685084
342.40 1.684073
342.50 1.683062
342.60 1.68104
342.70 1.680029
342.80 1.679019
342.90 1.678008
343.00 1.676997
343.10 1.675986
343.20 1.673964
343.30 1.672954
343.40 1.671943
343.50 1.670932
343.60 1.669921
343.70 1.66891
343.80 1.666888
343.90 1.665878
344.00 1.664867
344.10 1.663856
344.20 1.662845
344.30 1.661834
344.40 1.659812
344.50 1.658802
344.60 1.657791
344.70 1.65678
344.80 1.655769
344.90 1.654758
345.00 1.653747
345.10 1.651726
345.20 1.650715
345.30 1.649704
345.40 1.648693
345.50 1.647682
345.60 1.646671
345.70 1.645661
345.80 1.643639
345.90 1.642628
346.00 1.641617
346.10 1.640606
346.20 1.639596
346.30 1.638585
346.40 1.637574
346.50 1.635552
346.60 1.634541
346.70 1.63353
346.80 1.63252
346.90 1.631509
347.00 1.630498
347.10 1.629487
347.20 1.627465
347.30 1.626455
347.40 1.625444
347.50 1.624433
347.60 1.623422
347.70 1.622411
347.80 1.6214
347.90 1.620389
348.00 1.618368
348.10 1.617357
348.20 1.616346
348.30 1.615335
348.40 1.614324
348.50 1.613313
348.60 1.612303
348.70 1.611292
348.80 1.610281
348.90 1.608259
349.00 1.607248
349.10 1.606238
349.20 1.605227
349.30 1.604216
349.40 1.603205
349.50 1.602194
349.60 1.601183
349.70 1.600172
349.80 1.598151
349.90 1.59714
350.00 1.596129
350.10 1.595118
350.20 1.594107
350.30 1.593097
350.40 1.592086
350.50 1.591075
350.60 1.590064
350.70 1.589053
350.80 1.588042
350.90 1.586021
351.00 1.58501
351.10 1.583999
351.20 1.582988
351.30 1.581977
351.40 1.580966
351.50 1.579956
351.60 1.578945
351.70 1.577934
351.80 1.576923
351.90 1.575912
352.00 1.57389
352.10 1.57288
352.20 1.571869
352.30 1.570858
352.40 1.569847
352.50 1.568836
352.60 1.567825
352.70 1.566814
352.80 1.565804
352.90 1.564793
353.00 1.563782
353.10 1.562771
353.20 1.56176
353.30 1.560749
353.40 1.558728
353.50 1.557717
353.60 1.556706
353.70 1.555695
353.80 1.554684
353.90 1.553673
354.00 1.552663
354.10 1.551652
354.20 1.550641
354.30 1.54963
354.40 1.548619
354.50 1.547608
354.60 1.546598
354.70 1.545587
354.80 1.544576
354.90 1.543565
355.00 1.542554
355.10 1.540532
355.20 1.539522
355.30 1.538511
355.40 1.5375
355.50 1.536489
355.60 1.535478
355.70 1.534467
355.80 1.533456
355.90 1.532446
356.00 1.531435
356.10 1.530424
356.20 1.529413
356.30 1.528402
356.40 1.527391
356.50 1.526381
356.60 1.52537
356.70 1.524359
356.80 1.523348
356.90 1.522337
357.00 1.521326
357.10 1.520315
357.20 1.519305
357.30 1.518294
357.40 1.517283
357.50 1.516272
357.60 1.515261
357.70 1.51324
357.80 1.512229
357.90 1.511218
358.00 1.510207
358.10 1.509196
358.20 1.508185
358.30 1.507174
358.40 1.506164
358.50 1.505153
358.60 1.504142
358.70 1.503131
358.80 1.50212
358.90 1.501109
359.00 1.500099
359.10 1.499088
359.20 1.498077
359.30 1.497066
359.40 1.496055
359.50 1.495044
359.60 1.494033
359.70 1.493023
359.80 1.492012
359.90 1.491001
360.00 1.48999
360.10 1.488979
360.20 1.487968
360.30 1.486957
360.40 1.485947
360.50 1.484936
360.60 1.483925
360.70 1.482914
360.80 1.481903
360.90 1.480892
361.00 1.479882
361.10 1.478871
361.20 1.47786
361.30 1.476849
361.40 1.475838
361.50 1.474827
361.60 1.473816
361.70 1.472806
361.80 1.471795
361.90 1.470784
362.00 1.469773
362.10 1.468762
362.20 1.467751
362.30 1.466741
362.40 1.46573
362.50 1.464719
362.60 1.463708
362.70 1.462697
362.80 1.461686
362.90 1.460675
363.00 1.459665
363.10 1.458654
363.20 1.457643
363.30 1.456632
363.40 1.455621
363.50 1.45461
363.60 1.453599
363.70 1.452589
363.80 1.451578
363.90 1.450567
364.00 1.449556
364.10 1.448545
364.20 1.447534
364.30 1.446524
364.40 1.444502
364.50 1.443491
364.60 1.44248
364.70 1.441469
364.80 1.440458
364.90 1.439448
365.00 1.438437
365.10 1.437426
365.20 1.436415
365.30 1.435404
365.40 1.434393
365.50 1.433383
365.60 1.431361
365.70 1.43035
365.80 1.429339
365.90 1.428328
366.00 1.427317
366.10 1.426307
366.20 1.425296
366.30 1.424285
366.40 1.423274
366.50 1.422263
366.60 1.421252
366.70 1.420242
366.80 1.419231
366.90 1.41822
367.00 1.417209
367.10 1.416198
367.20 1.415187
367.30 1.414176
367.40 1.413166
367.50 1.412155
367.60 1.412155
367.70 1.411144
367.80 1.410133
367.90 1.409122
368.00 1.408111
368.10 1.4071
368.20 1.40609
368.30 1.405079
368.40 1.404068
368.50 1.403057
368.60 1.403057
368.70 1.402046
368.80 1.401035
368.90 1.400025
369.00 1.399014
369.10 1.398003
369.20 1.398003
369.30 1.396992
369.40 1.395981
369.50 1.39497
369.60 1.393959
369.70 1.392949
369.80 1.392949
369.90 1.391938
370.00 1.390927
370.10 1.390927
370.20 1.389916
370.30 1.389916
370.40 1.389916
370.50 1.388905
370.60 1.388905
370.70 1.387894
370.80 1.387894
370.90 1.387894
371.00 1.386884
371.10 1.386884
371.20 1.386884
371.30 1.385873
371.40 1.385873
371.50 1.385873
371.60 1.384862
371.70 1.384862
371.80 1.384862
371.90 1.383851
372.00 1.383851
372.10 1.383851
372.20 1.384862
372.30 1.384862
372.40 1.384862
372.50 1.385873
372.60 1.385873
372.70 1.385873
372.80 1.386884
372.90 1.386884
373.00 1.387894
373.10 1.387894
373.20 1.387894
373.30 1.388905
373.40 1.388905
373.50 1.389916
373.60 1.389916
373.70 1.389916
373.80 1.390927
373.90 1.390927
374.00 1.390927
374.10 1.391938
374.20 1.392949
374.30 1.393959
374.40 1.39497
374.50 1.395981
374.60 1.395981
374.70 1.396992
374.80 1.398003
374.90 1.399014
375.00 1.400025
375.10 1.400025
375.20 1.401035
375.30 1.402046
375.40 1.403057
375.50 1.404068
375.60 1.404068
375.70 1.405079
375.80 1.40609
375.90 1.4071
376.00 1.408111
376.10 1.408111
376.20 1.408111
376.30 1.409122
376.40 1.409122
376.50 1.410133
376.60 1.410133
376.70 1.410133
376.80 1.411144
376.90 1.411144
377.00 1.411144
377.10 1.410133
377.20 1.409122
377.30 1.408111
377.40 1.4071
377.50 1.40609
377.60 1.405079
377.70 1.404068
377.80 1.403057
377.90 1.402046
378.00 1.401035
378.10 1.395981
378.20 1.390927
378.30 1.384862
378.40 1.379808
378.50 1.374753
378.60 1.368688
378.70 1.363634
378.80 1.35858
378.90 1.353526
379.00 1.34746
379.10 1.344428
379.20 1.340385
379.30 1.336341
379.40 1.332298
379.50 1.329265
379.60 1.325222
379.70 1.321178
379.80 1.318146
379.90 1.314102
380.00 1.310059
380.10 1.316124
380.20 1.321178
380.30 1.326233
380.40 1.332298
380.50 1.337352
380.60 1.342406
380.70 1.348471
380.80 1.353526
380.90 1.35858
381.00 1.364645
381.10 1.365656
381.20 1.367677
381.30 1.369699
381.40 1.37071
381.50 1.372732
381.60 1.371721
381.70 1.369699
381.80 1.366667
381.90 1.362623
382.00 1.35858
382.10 1.352515
382.20 1.345439
382.30 1.332298
382.40 1.319157
382.50 1.307027
382.60 1.293886
382.70 1.280744
382.80 1.268614
382.90 1.255473
383.00 1.242332
383.10 1.230202
383.20 1.217061
383.30 1.207963
383.40 1.196844
383.50 1.185725
383.60 1.187746
383.70 1.199877
383.80 1.210996
383.90 1.220094
384.00 1.232224
384.10 1.248397
384.20 1.264571
384.30 1.281755
384.40 1.297929
384.50 1.312081
384.60 1.325222
384.70 1.337352
384.80 1.34746
384.90 1.356558
385.00 1.364645
385.10 1.371721
385.20 1.376775
385.30 1.381829
385.40 1.384862
385.50 1.387894
385.60 1.389916
385.70 1.390927
385.80 1.391938
385.90 1.390927
386.00 1.389916
386.10 1.387894
386.20 1.385873
386.30 1.38284
386.40 1.378797
386.50 1.373742
386.60 1.368688
386.70 1.362623
386.80 1.355547
386.90 1.34746
387.00 1.339374
387.10 1.330276
387.20 1.320168
387.30 1.309048
387.40 1.297929
387.50 1.284788
387.60 1.270636
387.70 1.255473
387.80 1.238289
387.90 1.219083
388.00 1.198866
388.10 1.176627
388.20 1.151356
388.30 1.126085
388.40 1.097781
388.50 1.073521
388.60 1.050271
388.70 1.033087
388.80 1.017924
388.90 1.004176
389.00 1.015902
389.10 1.031065
389.20 1.048249
389.30 1.070488
389.40 1.094748
389.50 1.122041
389.60 1.148323
389.70 1.173595
389.80 1.197855
389.90 1.219083
390.00 1.238289
390.10 1.256484
390.20 1.273669
390.30 1.288831
390.40 1.303994
390.50 1.318146
390.60 1.331287
390.70 1.343417
390.80 1.354536
390.90 1.365656
391.00 1.376775
391.10 1.386884
391.20 1.395981
391.30 1.405079
391.40 1.414176
391.50 1.421252
391.60 1.429339
391.70 1.435404
391.80 1.441469
391.90 1.447534
392.00 1.452589
392.10 1.456632
392.20 1.459665
392.30 1.462697
392.40 1.464719
392.50 1.466741
392.60 1.466741
392.70 1.466741
392.80 1.466741
392.90 1.464719
393.00 1.462697
393.10 1.459665
393.20 1.455621
393.30 1.451578
393.40 1.446524
393.50 1.440458
393.60 1.434393
393.70 1.427317
393.80 1.419231
393.90 1.410133
394.00 1.401035
394.10 1.390927
394.20 1.379808
394.30 1.368688
394.40 1.355547
394.50 1.343417
394.60 1.330276
394.70 1.316124
394.80 1.301972
394.90 1.28681
395.00 1.271647
395.10 1.255473
395.20 1.2393
395.30 1.222115
395.40 1.204931
395.50 1.186736
395.60 1.16854
395.70 1.149334
395.80 1.129117
395.90 1.1089
396.00 1.086662
396.10 1.064423
396.20 1.040163
396.30 1.01287
396.40 0.9842627
396.50 0.9514102
396.60 0.9185576
396.70 0.8858061
396.80 0.8590187
396.90 0.8302095
397.00 0.7995808
397.10 0.8273791
397.20 0.8540655
397.30 0.8795389
397.40 0.9112795
397.50 0.9432223
397.60 0.9753673
397.70 1.003772
397.80 1.030054
397.90 1.054315
398.00 1.076553
398.10 1.09677
398.20 1.116987
398.30 1.136193
398.40 1.155399
398.50 1.173595
398.60 1.190779
398.70 1.207963
398.80 1.225148
398.90 1.241321
399.00 1.257495
399.10 1.273669
399.20 1.288831
399.30 1.303994
399.40 1.319157
399.50 1.333309
399.60 1.34746
399.70 1.361612
399.80 1.374753
399.90 1.387894
400.00 1.401035
400.10 1.413166
400.20 1.425296
400.30 1.437426
400.40 1.447534
400.50 1.458654
400.60 1.468762
400.70 1.478871
400.80 1.487968
400.90 1.497066
401.00 1.506164
401.10 1.51425
401.20 1.522337
401.30 1.529413
401.40 1.536489
401.50 1.543565
401.60 1.54963
401.70 1.555695
401.80 1.560749
401.90 1.565804
402.00 1.570858
402.10 1.574901
402.20 1.578945
402.30 1.581977
402.40 1.586021
402.50 1.588042
402.60 1.591075
402.70 1.593097
402.80 1.595118
402.90 1.596129
403.00 1.59714
403.10 1.59714
403.20 1.598151
403.30 1.598151
403.40 1.59714
403.50 1.596129
403.60 1.595118
403.70 1.594107
403.80 1.592086
403.90 1.589053
404.00 1.587031
404.10 1.583999
404.20 1.579956
404.30 1.576923
404.40 1.57288
404.50 1.567825
404.60 1.562771
404.70 1.557717
404.80 1.552663
404.90 1.546598
405.00 1.539522
405.10 1.533456
405.20 1.52537
405.30 1.518294
405.40 1.510207
405.50 1.50212
405.60 1.493023
405.70 1.483925
405.80 1.474827
405.90 1.464719
406.00 1.45461
406.10 1.444502
406.20 1.433383
406.30 1.422263
406.40 1.410133
406.50 1.398003
406.60 1.384862
406.70 1.372732
406.80 1.359591
406.90 1.345439
407.00 1.331287
407.10 1.317135
407.20 1.301972
407.30 1.28681
407.40 1.271647
407.50 1.255473
407.60 1.2393
407.70 1.223126
407.80 1.205942
407.90 1.188757
408.00 1.171573
408.10 1.154388
408.20 1.137204
408.30 1.119009
408.40 1.100814
408.50 1.082618
408.60 1.064423
408.70 1.045217
408.80 1.026011
408.90 1.007209
409.00 0.9879018
409.10 0.9681903
409.20 0.9480744
409.30 0.9275542
409.40 0.9050123
409.50 0.8807519
409.60 0.8548742
409.70 0.8250542
409.80 0.7941222
409.90 0.7619773
410.00 0.7280128
410.10 0.6973841
410.20 0.6701923
410.30 0.7098175
410.40 0.7455004
410.50 0.7772411
410.60 0.808173
410.70 0.8373865
410.80 0.8648816
410.90 0.8885354
411.00 0.910673
411.10 0.9312943
411.20 0.9503993
411.30 0.9692011
411.40 0.9875985
411.50 1.005592
411.60 1.022978
411.70 1.041173
411.80 1.058358
411.90 1.075542
412.00 1.092727
412.10 1.1089
412.20 1.125074
412.30 1.141247
412.40 1.157421
412.50 1.173595
412.60 1.188757
412.70 1.20392
412.80 1.219083
412.90 1.234245
413.00 1.248397
413.10 1.262549
413.20 1.276701
413.30 1.289842
413.40 1.302983
413.50 1.316124
413.60 1.328254
413.70 1.340385
413.80 1.351504
413.90 1.363634
414.00 1.374753
414.10 1.385873
414.20 1.395981
414.30 1.40609
414.40 1.416198
414.50 1.426307
414.60 1.435404
414.70 1.445513
414.80 1.453599
414.90 1.462697
415.00 1.470784
415.10 1.478871
415.20 1.486957
415.30 1.495044
415.40 1.50212
415.50 1.509196
415.60 1.516272
415.70 1.522337
415.80 1.529413
415.90 1.535478
416.00 1.541543
416.10 1.546598
416.20 1.552663
416.30 1.557717
416.40 1.562771
416.50 1.567825
416.60 1.57288
416.70 1.577934
416.80 1.581977
416.90 1.586021
417.00 1.590064
417.10 1.594107
417.20 1.598151
417.30 1.601183
417.40 1.605227
417.50 1.608259
417.60 1.611292
417.70 1.614324
417.80 1.617357
417.90 1.620389
418.00 1.622411
418.10 1.624433
418.20 1.627465
418.30 1.629487
418.40 1.631509
418.50 1.63353
418.60 1.635552
418.70 1.636563
418.80 1.638585
418.90 1.639596
419.00 1.641617
419.10 1.642628
419.20 1.643639
419.30 1.64465
419.40 1.645661
419.50 1.646671
419.60 1.647682
419.70 1.647682
419.80 1.648693
419.90 1.648693
420.00 1.649704
420.10 1.649704
420.20 1.649704
420.30 1.649704
420.40 1.649704
420.50 1.649704
420.60 1.649704
420.70 1.649704
420.80 1.649704
420.90 1.649704
421.00 1.648693
421.10 1.648693
421.20 1.647682
421.30 1.647682
421.40 1.646671
421.50 1.645661
421.60 1.645661
421.70 1.64465
421.80 1.643639
421.90 1.642628
422.00 1.641617
422.10 1.639596
422.20 1.638585
422.30 1.637574
422.40 1.636563
422.50 1.634541
422.60 1.63353
422.70 1.631509
422.80 1.629487
422.90 1.628476
423.00 1.626455
423.10 1.624433
423.20 1.622411
423.30 1.620389
423.40 1.618368
423.50 1.616346
423.60 1.614324
423.70 1.611292
423.80 1.60927
423.90 1.607248
424.00 1.604216
424.10 1.601183
424.20 1.599162
424.30 1.596129
424.40 1.593097
424.50 1.590064
424.60 1.587031
424.70 1.583999
424.80 1.580966
424.90 1.577934
425.00 1.574901
425.10 1.570858
425.20 1.567825
