# Wavelength(nm)  Flambda(ergs/cm^s/s/nm)
300.00 0.5141712
300.10 0.5146753
300.20 0.5151794
300.30 0.5156835
300.40 0.5160868
300.50 0.5165908
300.60 0.5170949
300.70 0.517599
300.80 0.5181031
300.90 0.5186072
301.00 0.5191113
301.10 0.5196154
301.20 0.5201195
301.30 0.5206236
301.40 0.5210268
301.50 0.5215309
301.60 0.522035
301.70 0.5225391
301.80 0.5230432
301.90 0.5235473
302.00 0.5239506
302.10 0.5244546
302.20 0.5249587
302.30 0.5254628
302.40 0.5259669
302.50 0.526471
302.60 0.5269751
302.70 0.5274792
302.80 0.5279833
302.90 0.5283865
303.00 0.5288906
303.10 0.5293947
303.20 0.5298988
303.30 0.5304029
303.40 0.530907
303.50 0.5314111
303.60 0.5318144
303.70 0.5323184
303.80 0.5328225
303.90 0.5333266
304.00 0.5338307
304.10 0.5343348
304.20 0.5347381
304.30 0.5352422
304.40 0.5357462
304.50 0.5362503
304.60 0.5367544
304.70 0.5372585
304.80 0.5377626
304.90 0.5381659
305.00 0.53867
305.10 0.5391741
305.20 0.5396781
305.30 0.5401822
305.40 0.5406863
305.50 0.5410896
305.60 0.5415937
305.70 0.5420978
305.80 0.5426019
305.90 0.543106
306.00 0.5435092
306.10 0.5440133
306.20 0.5445174
306.30 0.5450215
306.40 0.5455256
306.50 0.5460297
306.60 0.5464329
306.70 0.546937
306.80 0.5474411
306.90 0.5479452
307.00 0.5484493
307.10 0.5489534
307.20 0.5493567
307.30 0.5498608
307.40 0.5503648
307.50 0.5508689
307.60 0.5512722
307.70 0.5517763
307.80 0.5522804
307.90 0.5527845
308.00 0.5532886
308.10 0.5536918
308.20 0.5541959
308.30 0.5547
308.40 0.5552041
308.50 0.5557082
308.60 0.5561115
308.70 0.5566156
308.80 0.5571196
308.90 0.5576237
309.00 0.5581278
309.10 0.5585311
309.20 0.5590352
309.30 0.5595393
309.40 0.5600434
309.50 0.5604466
309.60 0.5609507
309.70 0.5614548
309.80 0.5619589
309.90 0.5623622
310.00 0.5628663
310.10 0.5633703
310.20 0.5638744
310.30 0.5643785
310.40 0.5647818
310.50 0.5652859
310.60 0.56579
310.70 0.5662941
310.80 0.5666973
310.90 0.5672014
311.00 0.5677055
311.10 0.5682096
311.20 0.5687137
311.30 0.569117
311.40 0.5696211
311.50 0.5701251
311.60 0.5705284
311.70 0.5710325
311.80 0.5715366
311.90 0.5720407
312.00 0.572444
312.10 0.572948
312.20 0.5734521
312.30 0.5738554
312.40 0.5743595
312.50 0.5748636
312.60 0.5753677
312.70 0.5757709
312.80 0.576275
312.90 0.5767791
313.00 0.5772832
313.10 0.5776865
313.20 0.5781906
313.30 0.5786947
313.40 0.5790979
313.50 0.579602
313.60 0.5801061
313.70 0.5805094
313.80 0.5810135
313.90 0.5815176
314.00 0.5820217
314.10 0.5824249
314.20 0.582929
314.30 0.5834331
314.40 0.5838364
314.50 0.5843405
314.60 0.5848446
314.70 0.5853486
314.80 0.5857519
314.90 0.586256
315.00 0.5867601
315.10 0.5871634
315.20 0.5876675
315.30 0.5881715
315.40 0.5885748
315.50 0.5890789
315.60 0.589583
315.70 0.5899863
315.80 0.5904904
315.90 0.5909944
316.00 0.5913977
316.10 0.5919018
316.20 0.5924059
316.30 0.5928092
316.40 0.5933133
316.50 0.5938174
316.60 0.5942206
316.70 0.5947247
316.80 0.5952288
316.90 0.5956321
317.00 0.5961362
317.10 0.5966403
317.20 0.5970435
317.30 0.5975476
317.40 0.5980517
317.50 0.598455
317.60 0.5989591
317.70 0.5993623
317.80 0.5998664
317.90 0.6003705
318.00 0.6007738
318.10 0.6012779
318.20 0.601782
318.30 0.6021852
318.40 0.6026893
318.50 0.6030926
318.60 0.6035967
318.70 0.6041008
318.80 0.604504
318.90 0.6050081
319.00 0.6055122
319.10 0.6059155
319.20 0.6064196
319.30 0.6068229
319.40 0.6073269
319.50 0.607831
319.60 0.6082343
319.70 0.6087384
319.80 0.6091417
319.90 0.6096458
320.00 0.610049
320.10 0.6105531
320.20 0.6110572
320.30 0.6114605
320.40 0.6119646
320.50 0.6123678
320.60 0.6128719
320.70 0.613376
320.80 0.6137793
320.90 0.6142834
321.00 0.6146867
321.10 0.6151907
321.20 0.6156948
321.30 0.6160981
321.40 0.6166022
321.50 0.6170055
321.60 0.6175096
321.70 0.6179128
321.80 0.6184169
321.90 0.6188202
322.00 0.6193243
322.10 0.6198284
322.20 0.6202316
322.30 0.6207357
322.40 0.621139
322.50 0.6216431
322.60 0.6220464
322.70 0.6225504
322.80 0.6230545
322.90 0.6234578
323.00 0.6239619
323.10 0.6243652
323.20 0.6248693
323.30 0.6252725
323.40 0.6257766
323.50 0.6261799
323.60 0.626684
323.70 0.6270873
323.80 0.6275913
323.90 0.6279946
324.00 0.6284987
324.10 0.628902
324.20 0.6294061
324.30 0.6298093
324.40 0.6303134
324.50 0.6307167
324.60 0.6312208
324.70 0.6316241
324.80 0.6321281
324.90 0.6325314
325.00 0.6330355
325.10 0.6334388
325.20 0.6339429
325.30 0.6343461
325.40 0.6348502
325.50 0.6352535
325.60 0.6356568
325.70 0.6361609
325.80 0.6365641
325.90 0.6370682
326.00 0.6374715
326.10 0.6379756
326.20 0.6383789
326.30 0.6388829
326.40 0.6392862
326.50 0.6397903
326.60 0.6401936
326.70 0.6406977
326.80 0.6411009
326.90 0.641605
327.00 0.6420083
327.10 0.6425124
327.20 0.6429157
327.30 0.6433189
327.40 0.643823
327.50 0.6442263
327.60 0.6447304
327.70 0.6451337
327.80 0.6456377
327.90 0.646041
328.00 0.6464443
328.10 0.6469484
328.20 0.6473516
328.30 0.6478557
328.40 0.648259
328.50 0.6487631
328.60 0.6491664
328.70 0.6495696
328.80 0.6500737
328.90 0.650477
329.00 0.6509811
329.10 0.6513844
329.20 0.6518885
329.30 0.6522917
329.40 0.652695
329.50 0.6531991
329.60 0.6536024
329.70 0.6540056
329.80 0.6545097
329.90 0.654913
330.00 0.6553163
330.10 0.6558204
330.20 0.6562236
330.30 0.6567277
330.40 0.657131
330.50 0.6576351
330.60 0.6580383
330.70 0.6584416
330.80 0.6589457
330.90 0.659349
331.00 0.6597522
331.10 0.6602563
331.20 0.6606596
331.30 0.6610629
331.40 0.661567
331.50 0.6619702
331.60 0.6623735
331.70 0.6628776
331.80 0.6632809
331.90 0.6636841
332.00 0.6641882
332.10 0.6645915
332.20 0.6649948
332.30 0.6654989
332.40 0.6659021
332.50 0.6663054
332.60 0.6668095
332.70 0.6672128
332.80 0.667616
332.90 0.6681201
333.00 0.6685234
333.10 0.6689267
333.20 0.6694308
333.30 0.669834
333.40 0.6702373
333.50 0.6707414
333.60 0.6711447
333.70 0.6715479
333.80 0.6719512
333.90 0.6724553
334.00 0.6728586
334.10 0.6732618
334.20 0.6737659
334.30 0.6741692
334.40 0.6745725
334.50 0.6749757
334.60 0.6754798
334.70 0.6758831
334.80 0.6762864
334.90 0.6767905
335.00 0.6771937
335.10 0.677597
335.20 0.6780003
335.30 0.6785044
335.40 0.6789076
335.50 0.6793109
335.60 0.6797142
335.70 0.6802183
335.80 0.6806216
335.90 0.6810248
336.00 0.6814281
336.10 0.6819322
336.20 0.6823355
336.30 0.6827387
336.40 0.683142
336.50 0.6836461
336.60 0.6840494
336.70 0.6844526
336.80 0.6848559
336.90 0.6852592
337.00 0.6857633
337.10 0.6861665
337.20 0.6865698
337.30 0.6869731
337.40 0.6874772
337.50 0.6878804
337.60 0.6882837
337.70 0.688687
337.80 0.6890903
337.90 0.6894935
338.00 0.6899976
338.10 0.6904009
338.20 0.6908042
338.30 0.6912074
338.40 0.6916107
338.50 0.6921148
338.60 0.6925181
338.70 0.6929213
338.80 0.6933246
338.90 0.6937279
339.00 0.6941311
339.10 0.6946352
339.20 0.6950385
339.30 0.6954418
339.40 0.6958451
339.50 0.6962483
339.60 0.6966516
339.70 0.6970549
339.80 0.6974581
339.90 0.6978614
340.00 0.6983655
340.10 0.6987688
340.20 0.699172
340.30 0.6995753
340.40 0.6999786
340.50 0.7003819
340.60 0.7008859
340.70 0.7012892
340.80 0.7016925
340.90 0.7020958
341.00 0.702499
341.10 0.7029023
341.20 0.7033056
341.30 0.7037088
341.40 0.7042129
341.50 0.7046162
341.60 0.7050195
341.70 0.7054228
341.80 0.705826
341.90 0.7062293
342.00 0.7066326
342.10 0.7070358
342.20 0.7074391
342.30 0.7078424
342.40 0.7083465
342.50 0.7087497
342.60 0.709153
342.70 0.7095563
342.80 0.7099596
342.90 0.7103628
343.00 0.7107661
343.10 0.7111694
343.20 0.7115726
343.30 0.7119759
343.40 0.7123792
343.50 0.7127825
343.60 0.7131857
343.70 0.713589
343.80 0.7139923
343.90 0.7143955
344.00 0.7147988
344.10 0.7152021
344.20 0.7156054
344.30 0.7160086
344.40 0.7164119
344.50 0.7168152
344.60 0.7172184
344.70 0.7177225
344.80 0.7181258
344.90 0.7185291
345.00 0.7189323
345.10 0.7192348
345.20 0.7196381
345.30 0.7200413
345.40 0.7204446
345.50 0.7208479
345.60 0.7212512
345.70 0.7216544
345.80 0.7220577
345.90 0.722461
346.00 0.7228642
346.10 0.7232675
346.20 0.7236708
346.30 0.7240741
346.40 0.7244773
346.50 0.7248806
346.60 0.7252839
346.70 0.7256871
346.80 0.7260904
346.90 0.7264937
347.00 0.726897
347.10 0.7273002
347.20 0.7277035
347.30 0.7281068
347.40 0.72851
347.50 0.7289133
347.60 0.7293166
347.70 0.7297199
347.80 0.7301231
347.90 0.7305264
348.00 0.7309297
348.10 0.7313329
348.20 0.7316354
348.30 0.7320387
348.40 0.7324419
348.50 0.7328452
348.60 0.7332485
348.70 0.7336518
348.80 0.734055
348.90 0.7344583
349.00 0.7348616
349.10 0.7352648
349.20 0.7356681
349.30 0.7359706
349.40 0.7363738
349.50 0.7367771
349.60 0.7371804
349.70 0.7375837
349.80 0.7379869
349.90 0.7382894
350.00 0.7386927
350.10 0.7390959
350.20 0.7394992
350.30 0.7399025
350.40 0.7403057
350.50 0.740709
350.60 0.7411123
350.70 0.7414147
350.80 0.741818
350.90 0.7422213
351.00 0.7426246
351.10 0.7430278
351.20 0.7434311
351.30 0.7438344
351.40 0.7441368
351.50 0.7445401
351.60 0.7449434
351.70 0.7453466
351.80 0.7457499
351.90 0.7460524
352.00 0.7464556
352.10 0.7468589
352.20 0.7472622
352.30 0.7476654
352.40 0.7480687
352.50 0.7483712
352.60 0.7487744
352.70 0.7491777
352.80 0.749581
352.90 0.7499843
353.00 0.7503875
353.10 0.75069
353.20 0.7510933
353.30 0.7514965
353.40 0.7518998
353.50 0.7522023
353.60 0.7526055
353.70 0.7530088
353.80 0.7534121
353.90 0.7538153
354.00 0.7541178
354.10 0.7545211
354.20 0.7549243
354.30 0.7553276
354.40 0.7556301
354.50 0.7560333
354.60 0.7564366
354.70 0.7568399
354.80 0.7571423
354.90 0.7575456
355.00 0.7579489
355.10 0.7583521
355.20 0.7586546
355.30 0.7590579
355.40 0.7594611
355.50 0.7597636
355.60 0.7601669
355.70 0.7605701
355.80 0.7608726
355.90 0.7612759
356.00 0.7616791
356.10 0.7619816
356.20 0.7623849
356.30 0.7627881
356.40 0.7631914
356.50 0.7634939
356.60 0.7638971
356.70 0.7643004
356.80 0.7646029
356.90 0.7650061
357.00 0.7654094
357.10 0.7657118
357.20 0.7661151
357.30 0.7665184
357.40 0.7669217
357.50 0.7672241
357.60 0.7676274
357.70 0.7679298
357.80 0.7683331
357.90 0.7687364
358.00 0.7690388
358.10 0.7694421
358.20 0.7698454
358.30 0.7701478
358.40 0.7705511
358.50 0.7709544
358.60 0.7712568
358.70 0.7716601
358.80 0.7720634
358.90 0.7723658
359.00 0.7727691
359.10 0.7731724
359.20 0.7734748
359.30 0.7738781
359.40 0.7741805
359.50 0.7745838
359.60 0.7749871
359.70 0.7752895
359.80 0.7756928
359.90 0.7759953
360.00 0.7763985
360.10 0.776701
360.20 0.7771043
360.30 0.7775075
360.40 0.77781
360.50 0.7782133
360.60 0.7785157
360.70 0.778919
360.80 0.7793223
360.90 0.7796247
361.00 0.780028
361.10 0.7803304
361.20 0.7807337
361.30 0.7810362
361.40 0.7814394
361.50 0.7818427
361.60 0.7821452
361.70 0.7825484
361.80 0.7828509
361.90 0.7832542
362.00 0.7835566
362.10 0.7839599
362.20 0.7842623
362.30 0.7846656
362.40 0.7849681
362.50 0.7853713
362.60 0.7856738
362.70 0.7860771
362.80 0.7863795
362.90 0.7867828
363.00 0.7870852
363.10 0.7874885
363.20 0.787791
363.30 0.7881942
363.40 0.7884967
363.50 0.7889
363.60 0.7892024
363.70 0.7896057
363.80 0.7899081
363.90 0.7903114
364.00 0.7906139
364.10 0.7910171
364.20 0.7913196
364.30 0.7917229
364.40 0.7920253
364.50 0.7923278
364.60 0.792731
364.70 0.7930335
364.80 0.7934368
364.90 0.7937392
365.00 0.7941425
365.10 0.7944449
365.20 0.7948482
365.30 0.7951507
365.40 0.7954531
365.50 0.7958564
365.60 0.7961588
365.70 0.7965621
365.80 0.7968646
365.90 0.7972678
366.00 0.7975703
366.10 0.7978728
366.20 0.798276
366.30 0.7985785
366.40 0.7989817
366.50 0.7992842
366.60 0.7995867
366.70 0.7999899
366.80 0.8002924
366.90 0.8006957
367.00 0.8009981
367.10 0.8013006
367.20 0.8017038
367.30 0.8020063
367.40 0.8023087
367.50 0.802712
367.60 0.8030145
367.70 0.8034177
367.80 0.8037202
367.90 0.8040226
368.00 0.8044259
368.10 0.8047284
368.20 0.8050308
368.30 0.8054341
368.40 0.8057365
368.50 0.806039
368.60 0.8064423
368.70 0.8067447
368.80 0.8070472
368.90 0.8074505
369.00 0.8077529
369.10 0.8080554
369.20 0.8084586
369.30 0.8087611
369.40 0.8090635
369.50 0.8094668
369.60 0.8097693
369.70 0.8100717
369.80 0.8103742
369.90 0.8107774
370.00 0.8110799
370.10 0.8113823
370.20 0.8117856
370.30 0.8120881
370.40 0.8123905
370.50 0.8127938
370.60 0.8130963
370.70 0.8133987
370.80 0.8137012
370.90 0.8141044
371.00 0.8144069
371.10 0.8147093
371.20 0.8151126
371.30 0.8154151
371.40 0.8157175
371.50 0.81602
371.60 0.8164232
371.70 0.8167257
371.80 0.8170282
371.90 0.8173306
372.00 0.8177339
372.10 0.8180363
372.20 0.8183388
372.30 0.8186412
372.40 0.8190445
372.50 0.819347
372.60 0.8196494
372.70 0.8199519
372.80 0.8203551
372.90 0.8206576
373.00 0.82096
373.10 0.8212625
373.20 0.821565
373.30 0.8219682
373.40 0.8222707
373.50 0.8225731
373.60 0.8228756
373.70 0.823178
373.80 0.8235813
373.90 0.8238838
374.00 0.8241862
374.10 0.8244887
374.20 0.8247911
374.30 0.8251944
374.40 0.8254969
374.50 0.8257993
374.60 0.8261018
374.70 0.8264042
374.80 0.8267067
374.90 0.8271099
375.00 0.8274124
375.10 0.8277148
375.20 0.8280173
375.30 0.8283198
375.40 0.8286222
375.50 0.8289247
375.60 0.8293279
375.70 0.8296304
375.80 0.8299328
375.90 0.8302353
376.00 0.8305377
376.10 0.8308402
376.20 0.8311427
376.30 0.8314451
376.40 0.8317476
376.50 0.83205
376.60 0.8324533
376.70 0.8327557
376.80 0.8330582
376.90 0.8333606
377.00 0.8336631
377.10 0.8339656
377.20 0.834268
377.30 0.8345705
377.40 0.8348729
377.50 0.8351754
377.60 0.8354778
377.70 0.8357803
377.80 0.8361835
377.90 0.836486
378.00 0.8367885
378.10 0.8370909
378.20 0.8373934
378.30 0.8376958
378.40 0.8379983
378.50 0.8383007
378.60 0.8386032
378.70 0.8389056
378.80 0.8392081
378.90 0.8395105
379.00 0.839813
379.10 0.8401154
379.20 0.8404179
379.30 0.8407204
379.40 0.8410228
379.50 0.8413253
379.60 0.8416277
379.70 0.8419302
379.80 0.8422326
379.90 0.8425351
380.00 0.8428375
380.10 0.84314
380.20 0.8434424
380.30 0.8437449
380.40 0.8440473
380.50 0.8443498
380.60 0.8446523
380.70 0.8449547
380.80 0.8452572
380.90 0.8455596
381.00 0.8458621
381.10 0.8461645
381.20 0.846467
381.30 0.8467694
381.40 0.8470719
381.50 0.8473743
381.60 0.8476768
381.70 0.8479792
381.80 0.8482817
381.90 0.8485841
382.00 0.8488866
382.10 0.8491891
382.20 0.8494915
382.30 0.8496931
382.40 0.8499956
382.50 0.8502981
382.60 0.8506005
382.70 0.850903
382.80 0.8511046
382.90 0.8514071
383.00 0.8517095
383.10 0.852012
383.20 0.8522136
383.30 0.852516
383.40 0.8527177
383.50 0.8528185
383.60 0.853121
383.70 0.853625
383.80 0.8540283
383.90 0.8543308
384.00 0.854734
384.10 0.8550365
384.20 0.8553389
384.30 0.8556414
384.40 0.8559439
384.50 0.8562463
384.60 0.8565488
384.70 0.8568512
384.80 0.8570529
384.90 0.8574561
385.00 0.8576578
385.10 0.8579602
385.20 0.8582627
385.30 0.8585651
385.40 0.8588676
385.50 0.85917
385.60 0.8594725
385.70 0.8597749
385.80 0.8600774
385.90 0.860279
386.00 0.8605815
386.10 0.8608839
386.20 0.8611864
386.30 0.8614888
386.40 0.8617913
386.50 0.8619929
386.60 0.8622954
386.70 0.8625978
386.80 0.8629003
386.90 0.8632027
387.00 0.8634044
387.10 0.8637068
387.20 0.8640093
387.30 0.8643117
387.40 0.8645134
387.50 0.8648158
387.60 0.8651183
387.70 0.8653199
387.80 0.8656224
387.90 0.865824
388.00 0.8660256
388.10 0.8663281
388.20 0.8665297
388.30 0.8667314
388.40 0.8668322
388.50 0.866933
388.60 0.8670338
388.70 0.866933
388.80 0.8666306
388.90 0.8661265
389.00 0.8671346
389.10 0.868042
389.20 0.8686469
389.30 0.869151
389.40 0.8696551
389.50 0.8700584
389.60 0.8704616
389.70 0.8707641
389.80 0.8711674
389.90 0.8714698
390.00 0.8717723
390.10 0.8720747
390.20 0.8723772
390.30 0.8726796
390.40 0.8729821
390.50 0.8731837
390.60 0.8734862
390.70 0.8737886
390.80 0.8740911
390.90 0.8743935
391.00 0.8745952
391.10 0.8748976
391.20 0.8752001
391.30 0.8754017
391.40 0.8757042
391.50 0.8760066
391.60 0.8763091
391.70 0.8765107
391.80 0.8768132
391.90 0.8771156
392.00 0.8773172
392.10 0.8776197
392.20 0.8779222
392.30 0.8782246
392.40 0.8784262
392.50 0.8787287
392.60 0.8789303
392.70 0.8792328
392.80 0.8795352
392.90 0.8797369
393.00 0.8800393
393.10 0.8803418
393.20 0.8805434
393.30 0.8808459
393.40 0.8811483
393.50 0.88135
393.60 0.8816524
393.70 0.8818541
393.80 0.8821565
393.90 0.882459
394.00 0.8826606
394.10 0.882963
394.20 0.8831647
394.30 0.8834671
394.40 0.8836688
394.50 0.8839712
394.60 0.8841729
394.70 0.8844753
394.80 0.884677
394.90 0.8849794
395.00 0.885181
395.10 0.8853827
395.20 0.8856851
395.30 0.8858868
395.40 0.8860884
395.50 0.8863909
395.60 0.8865925
395.70 0.8867941
395.80 0.8869958
395.90 0.8870966
396.00 0.8872982
396.10 0.887399
396.20 0.8874999
396.30 0.8874999
396.40 0.8874999
396.50 0.8872982
396.60 0.8868949
396.70 0.8864917
396.80 0.8854835
396.90 0.884072
397.00 0.8823581
397.10 0.8844753
397.20 0.88629
397.30 0.8878023
397.40 0.8889113
397.50 0.8897178
397.60 0.8904236
397.70 0.8910285
397.80 0.8915326
397.90 0.8920367
398.00 0.8923391
398.10 0.8927424
398.20 0.8930448
398.30 0.8933473
398.40 0.8936497
398.50 0.8939522
398.60 0.8942547
398.70 0.8945571
398.80 0.8948596
398.90 0.8950612
399.00 0.8953636
399.10 0.8956661
399.20 0.8958677
399.30 0.8961702
399.40 0.8963718
399.50 0.8966743
399.60 0.8969767
399.70 0.8971784
399.80 0.8974808
399.90 0.8976825
400.00 0.8978841
400.10 0.8981865
400.20 0.8983882
400.30 0.8986906
400.40 0.8988923
400.50 0.8991947
400.60 0.8993964
400.70 0.8996988
400.80 0.8999005
400.90 0.9002029
401.00 0.9004045
401.10 0.900707
401.20 0.9009086
401.30 0.9011103
401.40 0.9014127
401.50 0.9016144
401.60 0.9019168
401.70 0.9021184
401.80 0.9023201
401.90 0.9026225
402.00 0.9028242
402.10 0.9030258
402.20 0.9033283
402.30 0.9035299
402.40 0.9037315
402.50 0.904034
402.60 0.9042356
402.70 0.9044373
402.80 0.9047397
402.90 0.9049413
403.00 0.905143
403.10 0.9054454
403.20 0.9056471
403.30 0.9058487
403.40 0.9061512
403.50 0.9063528
403.60 0.9065544
403.70 0.9068569
403.80 0.9070585
403.90 0.9072602
404.00 0.9075626
404.10 0.9077642
404.20 0.9079659
404.30 0.9081675
404.40 0.90847
404.50 0.9086716
404.60 0.9088732
404.70 0.9091757
404.80 0.9093773
404.90 0.909579
405.00 0.9097806
405.10 0.9099822
405.20 0.9102847
405.30 0.9104863
405.40 0.910688
405.50 0.9108896
405.60 0.9111921
405.70 0.9113937
405.80 0.9115953
405.90 0.911797
406.00 0.9120994
406.10 0.9123011
406.20 0.9125027
406.30 0.9127043
406.40 0.912906
406.50 0.9132084
406.60 0.9134101
406.70 0.9136117
406.80 0.9138133
406.90 0.914015
407.00 0.9142166
407.10 0.9144182
407.20 0.9146199
407.30 0.9148215
407.40 0.915124
407.50 0.9153256
407.60 0.9154264
407.70 0.915628
407.80 0.9158297
407.90 0.9160313
408.00 0.916233
408.10 0.9164346
408.20 0.9166362
408.30 0.9168379
408.40 0.9169387
408.50 0.9171403
408.60 0.9172411
408.70 0.9174428
408.80 0.9175436
408.90 0.9175436
409.00 0.9176444
409.10 0.9176444
409.20 0.9176444
409.30 0.9175436
409.40 0.9172411
409.50 0.9168379
409.60 0.916233
409.70 0.915124
409.80 0.9135109
409.90 0.9112929
410.00 0.9074618
410.10 0.9037315
410.20 0.9003037
410.30 0.9059495
410.40 0.9105871
410.50 0.9141158
410.60 0.916233
410.70 0.9179469
410.80 0.9192575
410.90 0.9201648
411.00 0.9208706
411.10 0.9215763
411.20 0.9220804
411.30 0.9224837
411.40 0.9228869
411.50 0.9231894
411.60 0.9235927
411.70 0.9238951
411.80 0.9240967
411.90 0.9243992
412.00 0.9247017
412.10 0.9249033
412.20 0.9252057
412.30 0.9254074
412.40 0.9257098
412.50 0.9259115
412.60 0.9261131
412.70 0.9264156
412.80 0.9266172
412.90 0.9268188
413.00 0.9270205
413.10 0.9272221
413.20 0.9274237
413.30 0.9277262
413.40 0.9279278
413.50 0.9281295
413.60 0.9283311
413.70 0.9285327
413.80 0.9287344
413.90 0.928936
414.00 0.9291376
414.10 0.9293393
414.20 0.9295409
414.30 0.9297425
414.40 0.9299442
414.50 0.9301458
414.60 0.9303475
414.70 0.9305491
414.80 0.9308515
414.90 0.9310532
415.00 0.9312548
415.10 0.9314565
415.20 0.9315573
415.30 0.9317589
415.40 0.9319605
415.50 0.9321622
415.60 0.9323638
415.70 0.9325654
415.80 0.9328679
415.90 0.9329687
416.00 0.9331704
416.10 0.933372
416.20 0.9335736
416.30 0.9337753
416.40 0.9339769
416.50 0.9341785
416.60 0.9343802
416.70 0.9345818
416.80 0.9347834
416.90 0.9349851
417.00 0.9351867
417.10 0.9353883
417.20 0.93559
417.30 0.9357916
417.40 0.9358924
417.50 0.9360941
417.60 0.9362957
417.70 0.9364973
417.80 0.936699
417.90 0.9369006
418.00 0.9371023
