# Version 2.1 - nm, norm@500 to 1, cut digits, bergeron_He_10000_80.dat_10000
# Wavelength(nm)  Flambda(ergs/cm^s/s/nm)
300.00 1.994925
300.10 1.994518
300.20 1.994098
300.30 1.993696
300.40 1.993426
300.50 1.993156
300.60 1.992885
300.70 1.992615
300.80 1.992344
300.90 1.992073
301.00 1.991802
301.10 1.991531
301.20 1.99126
301.30 1.990989
301.40 1.990718
301.50 1.990447
301.60 1.990175
301.70 1.989904
301.80 1.989633
301.90 1.989361
302.00 1.989089
302.10 1.98875
302.20 1.988404
302.30 1.988057
302.40 1.987711
302.50 1.987364
302.60 1.987018
302.70 1.986671
302.80 1.986325
302.90 1.985978
303.00 1.985632
303.10 1.985286
303.20 1.984939
303.30 1.984598
303.40 1.984299
303.50 1.984
303.60 1.983701
303.70 1.983402
303.80 1.983103
303.90 1.982803
304.00 1.982504
304.10 1.982205
304.20 1.981906
304.30 1.981606
304.40 1.981307
304.50 1.981008
304.60 1.980686
304.70 1.980363
304.80 1.980039
304.90 1.979715
305.00 1.979392
305.10 1.979068
305.20 1.978744
305.30 1.97842
305.40 1.978097
305.50 1.977773
305.60 1.977449
305.70 1.977126
305.80 1.976802
305.90 1.976478
306.00 1.976154
306.10 1.975831
306.20 1.975507
306.30 1.975183
306.40 1.974837
306.50 1.974483
306.60 1.97413
306.70 1.973777
306.80 1.973424
306.90 1.97307
307.00 1.972717
307.10 1.972364
307.20 1.972011
307.30 1.971658
307.40 1.971305
307.50 1.970952
307.60 1.970599
307.70 1.970246
307.80 1.969894
307.90 1.969541
308.00 1.969188
308.10 1.968835
308.20 1.968483
308.30 1.96813
308.40 1.967778
308.50 1.967425
308.60 1.967073
308.70 1.96672
308.80 1.966374
308.90 1.966043
309.00 1.965748
309.10 1.965452
309.20 1.965157
309.30 1.964861
309.40 1.964549
309.50 1.964137
309.60 1.963725
309.70 1.963313
309.80 1.962902
309.90 1.96249
310.00 1.962079
310.10 1.961667
310.20 1.961256
310.30 1.960845
310.40 1.960488
310.50 1.960191
310.60 1.959894
310.70 1.959596
310.80 1.959299
310.90 1.959001
311.00 1.958681
311.10 1.958362
311.20 1.958042
311.30 1.957696
311.40 1.957277
311.50 1.956859
311.60 1.95644
311.70 1.956022
311.80 1.955604
311.90 1.955186
312.00 1.954768
312.10 1.95435
312.20 1.954056
312.30 1.95387
312.40 1.953587
312.50 1.953073
312.60 1.952603
312.70 1.952133
312.80 1.951663
312.90 1.951281
313.00 1.950994
313.10 1.950707
313.20 1.950419
313.30 1.95009
313.40 1.94964
313.50 1.94919
313.60 1.948741
313.70 1.948292
313.80 1.947843
313.90 1.947394
314.00 1.946946
314.10 1.946596
314.20 1.946247
314.30 1.945898
314.40 1.945549
314.50 1.9452
314.60 1.944852
314.70 1.944503
314.80 1.944114
314.90 1.943631
315.00 1.943169
315.10 1.942792
315.20 1.942415
315.30 1.942038
315.40 1.941661
315.50 1.941284
315.60 1.940907
315.70 1.94053
315.80 1.940154
315.90 1.939777
316.00 1.939401
316.10 1.939025
316.20 1.938648
316.30 1.937989
316.40 1.937613
316.50 1.937237
316.60 1.937144
316.70 1.936486
316.80 1.935828
316.90 1.935453
317.00 1.935078
317.10 1.934703
317.20 1.934328
317.30 1.934079
317.40 1.933784
317.50 1.933358
317.60 1.932932
317.70 1.932506
317.80 1.93208
317.90 1.931602
318.00 1.930989
318.10 1.930615
318.20 1.930241
318.30 1.929868
318.40 1.929494
318.50 1.92912
318.60 1.928529
318.70 1.928435
318.80 1.927783
318.90 1.927214
319.00 1.927181
319.10 1.92653
319.20 1.925964
319.30 1.92564
319.40 1.925316
319.50 1.924992
319.60 1.924436
319.70 1.923966
319.80 1.923495
319.90 1.923025
320.00 1.922603
320.10 1.922231
320.20 1.922014
320.30 1.921367
320.40 1.921271
320.50 1.920624
320.60 1.920374
320.70 1.920003
320.80 1.919566
320.90 1.919058
321.00 1.91855
321.10 1.918042
321.20 1.917951
321.30 1.917517
321.40 1.917084
321.50 1.91665
321.60 1.916216
321.70 1.915783
321.80 1.915341
321.90 1.91489
322.00 1.91409
322.10 1.913649
322.20 1.913208
322.30 1.912767
322.40 1.912326
322.50 1.911886
322.60 1.911446
322.70 1.911006
322.80 1.910941
322.90 1.910481
323.00 1.910022
323.10 1.909563
323.20 1.909104
323.30 1.908645
323.40 1.908187
323.50 1.907728
323.60 1.90727
323.70 1.906812
323.80 1.906355
323.90 1.905897
324.00 1.905442
324.10 1.904988
324.20 1.904534
324.30 1.904072
324.40 1.903605
324.50 1.903158
324.60 1.90271
324.70 1.902263
324.80 1.901816
324.90 1.901369
325.00 1.900922
325.10 1.900475
325.20 1.900037
325.30 1.899615
325.40 1.899193
325.50 1.89874
325.60 1.898246
325.70 1.897754
325.80 1.897261
325.90 1.89681
326.00 1.896405
326.10 1.896
326.20 1.895594
326.30 1.895212
326.40 1.894895
326.50 1.89443
326.60 1.893965
326.70 1.893501
326.80 1.893036
326.90 1.892572
327.00 1.892108
327.10 1.891644
327.20 1.891181
327.30 1.890717
327.40 1.890254
327.50 1.889791
327.60 1.889329
327.70 1.888866
327.80 1.888404
327.90 1.887856
328.00 1.887293
328.10 1.886823
328.20 1.886354
328.30 1.885885
328.40 1.885416
328.50 1.884996
328.60 1.884588
328.70 1.88418
328.80 1.883753
328.90 1.883273
329.00 1.882794
329.10 1.882314
329.20 1.881835
329.30 1.881355
329.40 1.880877
329.50 1.880398
329.60 1.879919
329.70 1.879441
329.80 1.878963
329.90 1.878486
330.00 1.878006
330.10 1.877523
330.20 1.87704
330.30 1.876558
330.40 1.876078
330.50 1.875602
330.60 1.875125
330.70 1.874649
330.80 1.874173
330.90 1.873697
331.00 1.873221
331.10 1.872746
331.20 1.872271
331.30 1.871796
331.40 1.871321
331.50 1.870832
331.60 1.870325
331.70 1.869818
331.80 1.869337
331.90 1.868858
332.00 1.868379
332.10 1.867901
332.20 1.867422
332.30 1.866944
332.40 1.866466
332.50 1.865989
332.60 1.865511
332.70 1.865034
332.80 1.864557
332.90 1.864081
333.00 1.863604
333.10 1.863137
333.20 1.862683
333.30 1.862228
333.40 1.861774
333.50 1.86132
333.60 1.860866
333.70 1.860412
333.80 1.859959
333.90 1.859506
334.00 1.859053
334.10 1.858569
334.20 1.858049
334.30 1.857529
334.40 1.857009
334.50 1.85649
334.60 1.855971
334.70 1.855405
334.80 1.8549
334.90 1.854564
335.00 1.854228
335.10 1.85351
335.20 1.852909
335.30 1.852585
335.40 1.851984
335.50 1.851446
335.60 1.851098
335.70 1.850523
335.80 1.850175
335.90 1.84977
336.00 1.849296
336.10 1.848823
336.20 1.84835
336.30 1.847858
336.40 1.847344
336.50 1.84683
336.60 1.846316
336.70 1.845803
336.80 1.84529
336.90 1.844793
337.00 1.844315
337.10 1.843838
337.20 1.843362
337.30 1.842872
337.40 1.842365
337.50 1.841857
337.60 1.84135
337.70 1.840843
337.80 1.840337
337.90 1.839828
338.00 1.839316
338.10 1.838805
338.20 1.838293
338.30 1.837782
338.40 1.837266
338.50 1.836738
338.60 1.83621
338.70 1.835682
338.80 1.835154
338.90 1.834627
339.00 1.8341
339.10 1.833573
339.20 1.833047
339.30 1.832602
339.40 1.832275
339.50 1.831864
339.60 1.831351
339.70 1.830838
339.80 1.830325
339.90 1.829812
340.00 1.829299
340.10 1.828787
340.20 1.828276
340.30 1.827764
340.40 1.827253
340.50 1.826742
340.60 1.826231
340.70 1.825721
340.80 1.825185
340.90 1.824611
341.00 1.824062
341.10 1.82354
341.20 1.823019
341.30 1.822498
341.40 1.821977
341.50 1.821457
341.60 1.820937
341.70 1.820417
341.80 1.819909
341.90 1.819415
342.00 1.818921
342.10 1.818427
342.20 1.818062
342.30 1.81752
342.40 1.816896
342.50 1.816403
342.60 1.81591
342.70 1.815417
342.80 1.814924
342.90 1.814431
343.00 1.813899
343.10 1.813319
343.20 1.812738
343.30 1.812158
343.40 1.811614
343.50 1.811119
343.60 1.810625
343.70 1.810131
343.80 1.809637
343.90 1.809144
344.00 1.808667
344.10 1.808214
344.20 1.807762
344.30 1.807309
344.40 1.806808
344.50 1.806237
344.60 1.805482
344.70 1.80515
344.80 1.804341
344.90 1.804009
345.00 1.803385
345.10 1.802816
345.20 1.802315
345.30 1.801914
345.40 1.801512
345.50 1.801028
345.60 1.800449
345.70 1.799882
345.80 1.799315
345.90 1.798748
346.00 1.798182
346.10 1.797616
346.20 1.79707
346.30 1.796552
346.40 1.796034
346.50 1.795517
346.60 1.795
346.70 1.794483
346.80 1.793966
346.90 1.79345
347.00 1.792934
347.10 1.792418
347.20 1.791902
347.30 1.791383
347.40 1.790864
347.50 1.790346
347.60 1.789829
347.70 1.789311
347.80 1.788794
347.90 1.788277
348.00 1.78776
348.10 1.787244
348.20 1.786728
348.30 1.786212
348.40 1.785697
348.50 1.785182
348.60 1.784667
348.70 1.784028
348.80 1.783412
348.90 1.782886
349.00 1.782361
349.10 1.781836
349.20 1.781311
349.30 1.780787
349.40 1.780263
349.50 1.779739
349.60 1.779215
349.70 1.778692
349.80 1.778169
349.90 1.777647
350.00 1.777124
350.10 1.776602
350.20 1.776081
350.30 1.775546
350.40 1.774992
350.50 1.774438
350.60 1.773885
350.70 1.773332
350.80 1.77278
350.90 1.772227
351.00 1.771676
351.10 1.771124
351.20 1.770573
351.30 1.770022
351.40 1.769484
351.50 1.768969
351.60 1.768455
351.70 1.76794
351.80 1.767426
351.90 1.766913
352.00 1.766399
352.10 1.765886
352.20 1.765484
352.30 1.765021
352.40 1.764452
352.50 1.763883
352.60 1.763314
352.70 1.762746
352.80 1.762178
352.90 1.761611
353.00 1.761044
353.10 1.760477
353.20 1.75991
353.30 1.759344
353.40 1.758779
353.50 1.758278
353.60 1.757794
353.70 1.75731
353.80 1.756827
353.90 1.756324
354.00 1.755786
354.10 1.755249
354.20 1.754712
354.30 1.754176
354.40 1.75364
354.50 1.753104
354.60 1.752568
354.70 1.752033
354.80 1.75148
354.90 1.750901
355.00 1.750323
355.10 1.749745
355.20 1.749167
355.30 1.748599
355.40 1.748031
355.50 1.747464
355.60 1.746897
355.70 1.746442
355.80 1.746037
355.90 1.745424
356.00 1.74479
356.10 1.744244
356.20 1.743698
356.30 1.743152
356.40 1.742606
356.50 1.742061
356.60 1.741516
356.70 1.740971
356.80 1.740427
356.90 1.739883
357.00 1.73934
357.10 1.738796
357.20 1.738253
357.30 1.737711
357.40 1.737156
357.50 1.736581
357.60 1.736005
357.70 1.73543
357.80 1.734862
357.90 1.734295
358.00 1.733745
358.10 1.733201
358.20 1.732656
358.30 1.732112
358.40 1.731568
358.50 1.731024
358.60 1.730481
358.70 1.729938
358.80 1.729395
358.90 1.728853
359.00 1.728372
359.10 1.728001
359.20 1.727602
359.30 1.727017
359.40 1.726433
359.50 1.725798
359.60 1.725152
359.70 1.724505
359.80 1.724044
359.90 1.723583
360.00 1.72309
360.10 1.72254
360.20 1.721991
360.30 1.721441
360.40 1.720892
360.50 1.720344
360.60 1.719551
360.70 1.719033
360.80 1.718515
360.90 1.717998
361.00 1.717604
361.10 1.717049
361.20 1.716292
361.30 1.715776
361.40 1.715239
361.50 1.714745
361.60 1.714308
361.70 1.713577
361.80 1.712951
361.90 1.712511
362.00 1.712072
362.10 1.711468
362.20 1.710851
362.30 1.710286
362.40 1.70972
362.50 1.709155
362.60 1.708591
362.70 1.707964
362.80 1.707644
362.90 1.707131
363.00 1.706619
363.10 1.706071
363.20 1.705524
363.30 1.704664
363.40 1.704262
363.50 1.703646
363.60 1.703138
363.70 1.702439
363.80 1.702122
363.90 1.701492
364.00 1.700863
364.10 1.700234
364.20 1.699606
364.30 1.699113
364.40 1.698655
364.50 1.698154
364.60 1.697647
364.70 1.697141
364.80 1.696635
364.90 1.695918
365.00 1.695201
365.10 1.694698
365.20 1.694195
365.30 1.693692
365.40 1.693189
365.50 1.692687
365.60 1.692185
365.70 1.691452
365.80 1.69072
365.90 1.690211
366.00 1.689757
366.10 1.68925
366.20 1.688742
366.30 1.688236
366.40 1.687729
366.50 1.686837
366.60 1.686339
366.70 1.685738
366.80 1.685138
366.90 1.68456
367.00 1.68402
367.10 1.683481
367.20 1.682942
367.30 1.682404
367.40 1.681865
367.50 1.681399
367.60 1.68095
367.70 1.680366
367.80 1.679784
367.90 1.679201
368.00 1.678553
368.10 1.678054
368.20 1.677473
368.30 1.676891
368.40 1.676309
368.50 1.675727
368.60 1.675146
368.70 1.674565
368.80 1.673985
368.90 1.673554
369.00 1.67298
369.10 1.672303
369.20 1.671816
369.30 1.671326
369.40 1.670836
369.50 1.670347
369.60 1.66965
369.70 1.668953
369.80 1.668385
369.90 1.667819
370.00 1.667253
370.10 1.66699
370.20 1.666308
370.30 1.665615
370.40 1.66513
370.50 1.664644
370.60 1.664159
370.70 1.663673
370.80 1.662981
370.90 1.662289
371.00 1.661805
371.10 1.661323
371.20 1.660633
371.30 1.659943
371.40 1.659572
371.50 1.658984
371.60 1.658397
371.70 1.657811
371.80 1.657224
371.90 1.656638
372.00 1.656277
372.10 1.655679
372.20 1.655131
372.30 1.654582
372.40 1.654034
372.50 1.653487
372.60 1.652939
372.70 1.652392
372.80 1.651709
372.90 1.651026
373.00 1.650548
373.10 1.650072
373.20 1.649391
373.30 1.648711
373.40 1.648235
373.50 1.647758
373.60 1.647282
373.70 1.646401
373.80 1.646014
373.90 1.64545
374.00 1.644874
374.10 1.644299
374.20 1.643724
374.30 1.643149
374.40 1.642524
374.50 1.642192
374.60 1.641626
374.70 1.641053
374.80 1.640481
374.90 1.639909
375.00 1.639303
375.10 1.638698
375.20 1.638093
375.30 1.637565
375.40 1.637037
375.50 1.636509
375.60 1.635982
375.70 1.635456
375.80 1.634929
375.90 1.634403
376.00 1.633534
376.10 1.633011
376.20 1.632492
376.30 1.631973
376.40 1.631454
376.50 1.630907
376.60 1.630317
376.70 1.629727
376.80 1.629139
376.90 1.628553
377.00 1.627968
377.10 1.627384
377.20 1.626819
377.30 1.626329
377.40 1.625839
377.50 1.625349
377.60 1.624748
377.70 1.624146
377.80 1.623546
377.90 1.622945
378.00 1.622242
378.10 1.621702
378.20 1.621165
378.30 1.620629
378.40 1.620093
378.50 1.619557
378.60 1.619022
378.70 1.618487
378.80 1.617953
378.90 1.617409
379.00 1.616848
379.10 1.616153
379.20 1.615458
379.30 1.614876
379.40 1.614406
379.50 1.613936
379.60 1.613446
379.70 1.612907
379.80 1.612297
379.90 1.611687
380.00 1.611077
380.10 1.610468
380.20 1.60986
380.30 1.609252
380.40 1.608644
380.50 1.608036
380.60 1.607692
380.70 1.607114
380.80 1.606536
380.90 1.605959
381.00 1.605382
381.10 1.604784
381.20 1.604261
381.30 1.60371
381.40 1.603255
381.50 1.602614
381.60 1.602025
381.70 1.601444
381.80 1.600994
381.90 1.600155
382.00 1.599706
382.10 1.599257
382.20 1.598575
382.30 1.598127
382.40 1.597629
382.50 1.597058
382.60 1.596488
382.70 1.595794
382.80 1.595095
382.90 1.594532
383.00 1.59397
383.10 1.593408
383.20 1.592834
383.30 1.592216
383.40 1.591624
383.50 1.591069
383.60 1.590647
383.70 1.590072
383.80 1.589497
383.90 1.588922
384.00 1.588348
384.10 1.587774
384.20 1.5872
384.30 1.586627
384.40 1.586062
384.50 1.585505
384.60 1.584949
384.70 1.584392
384.80 1.583874
384.90 1.583398
385.00 1.582739
385.10 1.582092
385.20 1.58173
385.30 1.581102
385.40 1.580512
385.50 1.579959
385.60 1.579406
385.70 1.578854
385.80 1.578292
385.90 1.577697
386.00 1.577125
386.10 1.57658
386.20 1.576057
386.30 1.575535
386.40 1.574866
386.50 1.574207
386.60 1.573616
386.70 1.573181
386.80 1.572462
386.90 1.571933
387.00 1.5715
387.10 1.570697
387.20 1.570254
387.30 1.569821
387.40 1.569109
387.50 1.568579
387.60 1.568186
387.70 1.567566
387.80 1.566946
387.90 1.566326
388.00 1.56576
388.10 1.565237
388.20 1.56455
388.30 1.563983
388.40 1.563416
388.50 1.562882
388.60 1.562337
388.70 1.561873
388.80 1.561246
388.90 1.560677
389.00 1.560069
389.10 1.559601
389.20 1.55902
389.30 1.558354
389.40 1.557937
389.50 1.557366
389.60 1.556658
389.70 1.556208
389.80 1.5556
389.90 1.554992
390.00 1.554385
390.10 1.553778
390.20 1.553172
390.30 1.552617
390.40 1.552121
390.50 1.551625
390.60 1.55113
390.70 1.550635
390.80 1.550095
390.90 1.549512
391.00 1.548824
391.10 1.548212
391.20 1.547668
391.30 1.547229
391.40 1.546623
391.50 1.546018
391.60 1.545413
391.70 1.544809
391.80 1.544205
391.90 1.543677
392.00 1.54316
392.10 1.542533
392.20 1.541947
392.30 1.541599
392.40 1.541056
392.50 1.540271
392.60 1.539854
392.70 1.539134
392.80 1.538653
392.90 1.537938
393.00 1.537351
393.10 1.536797
393.20 1.536274
393.30 1.535676
393.40 1.535153
393.50 1.534648
393.60 1.534092
393.70 1.533454
393.80 1.533057
393.90 1.532462
394.00 1.53185
394.10 1.531247
394.20 1.53084
394.30 1.530249
394.40 1.529503
394.50 1.529062
394.60 1.52849
394.70 1.527911
394.80 1.527304
394.90 1.526704
395.00 1.526282
395.10 1.525764
395.20 1.525195
395.30 1.524542
395.40 1.523889
395.50 1.523365
395.60 1.522889
395.70 1.522396
395.80 1.521854
395.90 1.521313
396.00 1.520751
396.10 1.520032
396.20 1.519446
396.30 1.518811
396.40 1.518405
396.50 1.517639
396.60 1.517234
396.70 1.516596
396.80 1.516065
396.90 1.515661
397.00 1.514897
397.10 1.514434
397.20 1.513812
397.30 1.513359
397.40 1.51271
397.50 1.512062
397.60 1.511427
397.70 1.510921
397.80 1.510415
397.90 1.50991
398.00 1.509407
398.10 1.508904
398.20 1.508351
398.30 1.50774
398.40 1.507133
398.50 1.506651
398.60 1.50597
398.70 1.505331
398.80 1.504721
398.90 1.504154
399.00 1.503663
399.10 1.50328
399.20 1.50269
399.30 1.502101
399.40 1.501512
399.50 1.500923
399.60 1.500381
399.70 1.499857
399.80 1.499333
399.90 1.498809
400.00 1.498279
400.10 1.49753
400.20 1.49703
400.30 1.4965
400.40 1.495892
400.50 1.495247
400.60 1.494629
400.70 1.49406
400.80 1.493715
400.90 1.493027
401.00 1.492578
401.10 1.491833
401.20 1.491366
401.30 1.490962
401.40 1.490403
401.50 1.48979
401.60 1.489183
401.70 1.488712
401.80 1.488044
401.90 1.487487
402.00 1.486914
402.10 1.486525
402.20 1.485786
402.30 1.485249
402.40 1.484659
402.50 1.484271
402.60 1.483534
402.70 1.483147
402.80 1.48241
402.90 1.481814
403.00 1.481253
403.10 1.480902
403.20 1.480176
403.30 1.47971
403.40 1.479048
403.50 1.478478
403.60 1.47796
403.70 1.477546
403.80 1.476821
403.90 1.476287
404.00 1.4757
404.10 1.475317
404.20 1.47476
404.30 1.474204
404.40 1.473475
404.50 1.47292
404.60 1.472365
404.70 1.471983
404.80 1.471266
404.90 1.470875
405.00 1.470149
405.10 1.46962
405.20 1.469141
405.30 1.468663
405.40 1.468111
405.50 1.467559
405.60 1.467008
405.70 1.466457
405.80 1.465906
405.90 1.465356
406.00 1.464772
406.10 1.464189
406.20 1.463607
406.30 1.463025
406.40 1.462439
406.50 1.461806
406.60 1.461343
406.70 1.460731
406.80 1.460147
406.90 1.459536
407.00 1.45899
407.10 1.458444
407.20 1.457899
407.30 1.457354
407.40 1.456809
407.50 1.456265
407.60 1.455721
407.70 1.455177
407.80 1.454634
407.90 1.454092
408.00 1.453565
408.10 1.453002
408.20 1.452378
408.30 1.451778
408.40 1.451177
408.50 1.450836
408.60 1.450244
408.70 1.449652
408.80 1.44909
408.90 1.448708
409.00 1.44813
409.10 1.447552
409.20 1.446975
409.30 1.446397
409.40 1.44582
409.50 1.445234
409.60 1.444647
409.70 1.444069
409.80 1.44352
409.90 1.442976
410.00 1.442599
410.10 1.441896
410.20 1.441298
410.30 1.440727
410.40 1.440178
410.50 1.439698
410.60 1.439218
410.70 1.438721
410.80 1.438157
410.90 1.437592
411.00 1.436999
411.10 1.436395
411.20 1.435791
411.30 1.435226
411.40 1.43481
411.50 1.434231
411.60 1.433652
411.70 1.433084
411.80 1.432555
411.90 1.431993
412.00 1.431298
412.10 1.430937
412.20 1.430243
412.30 1.429882
412.40 1.429189
412.50 1.428544
412.60 1.428089
412.70 1.427548
412.80 1.426986
412.90 1.426407
413.00 1.426068
413.10 1.425509
413.20 1.424951
413.30 1.424393
413.40 1.423835
413.50 1.423252
413.60 1.422604
413.70 1.422082
413.80 1.42156
413.90 1.421038
414.00 1.420517
414.10 1.419996
414.20 1.419436
414.30 1.418751
414.40 1.41833
414.50 1.417712
414.60 1.417068
414.70 1.416549
414.80 1.416031
414.90 1.415513
415.00 1.414995
415.10 1.414478
415.20 1.413946
415.30 1.413368
415.40 1.41279
415.50 1.412213
415.60 1.411651
415.70 1.411089
415.80 1.410526
415.90 1.409955
416.00 1.409385
416.10 1.408825
416.20 1.408305
416.30 1.407785
416.40 1.407266
416.50 1.406747
416.60 1.406235
416.70 1.405719
416.80 1.405044
416.90 1.404545
417.00 1.404023
417.10 1.403354
417.20 1.402844
417.30 1.402333
417.40 1.401776
417.50 1.40122
417.60 1.400696
417.70 1.400298
417.80 1.399736
417.90 1.399174
418.00 1.398613
418.10 1.398052
418.20 1.397492
418.30 1.396928
418.40 1.396294
418.50 1.395768
418.60 1.395241
418.70 1.394715
418.80 1.39419
418.90 1.393664
419.00 1.393139
419.10 1.392615
419.20 1.39209
419.30 1.391566
419.40 1.391016
419.50 1.390467
419.60 1.389917
419.70 1.389363
419.80 1.38881
419.90 1.388261
420.00 1.387726
420.10 1.387191
420.20 1.386657
420.30 1.386123
420.40 1.385589
420.50 1.385055
420.60 1.384522
420.70 1.38399
420.80 1.383457
420.90 1.382925
421.00 1.382383
421.10 1.381841
421.20 1.381294
421.30 1.38073
421.40 1.380166
421.50 1.379602
421.60 1.379038
421.70 1.378475
421.80 1.377913
421.90 1.377366
422.00 1.376869
422.10 1.376362
422.20 1.37581
422.30 1.375259
422.40 1.374708
422.50 1.37417
422.60 1.373632
422.70 1.373094
422.80 1.372557
422.90 1.37202
423.00 1.371483
423.10 1.370947
423.20 1.370411
423.30 1.369875
423.40 1.36934
423.50 1.368805
423.60 1.368271
423.70 1.367737
423.80 1.367203
423.90 1.366669
424.00 1.366136
424.10 1.365604
424.20 1.365071
424.30 1.364539
424.40 1.363984
424.50 1.363436
424.60 1.362889
424.70 1.362343
424.80 1.361797
424.90 1.361251
425.00 1.360705
